Timestamp,Sample Counter ,EEG Channel 1,EEG Channel 2,EEG Channel 3,EEG Channel 4,EEG Channel 5,EEG Channel 6,EEG Channel 7,EEG Channel 8,Marker tag,Marker timestamp,Marker value,
4,54,49012.4135032193,-43146.8463715132,-25277.5207492734,26028.0923280826,48086.3583786915,-52866.8824275592,16955.7651228625,-40210.1624262527,[Marker],0.2,Event 1,
8,55,114988.996385216,-62226.4519007745,-86216.7803903556,107500.245571166,115585.586796473,-87393.3985702275,101635.147826093,-87287.1830805758,
12,56,66549.2569266864,2173.4612790896,-68061.9782879327,78820.4093361389,73845.2686482988,-82727.76248786,78806.0148127097,-80329.3085490833,
16,57,-18575.1937121384,30963.2233933477,16204.7912126531,-12993.5160867591,-15446.7765029402,-36353.6371414229,-11993.7002055288,-10536.0311908759,
20,58,32726.4407547046,-31543.2958654518,-11093.5731045691,11097.3952528709,31863.7304739631,-45254.3476527152,3144.28694776141,-27744.2592673611,
24,59,110544.530814234,-66137.2472211417,-81214.8846644026,99887.9566655107,110602.310073651,-84014.6418231299,92923.1754449815,-83579.9674487075,
28,60,84255.7277388248,-10664.2855005605,-78265.3037625913,93122.0836188893,90452.3018541696,-87206.4932830922,92121.9548132366,-86153.3908430804,
32,61,-13771.7814769484,34200.1806736208,6101.84742234319,-3763.1396964955,-9079.39035646801,-43307.6895246136,-2107.36717073526,-21597.9765770407,
36,62,17258.9218329098,-19059.6007179738,2048.20210316206,-1702.13004376054,16565.168388506,-38355.1911539067,-8065.71639367538,-16142.8545287674,
40,63,103218.925382963,-67260.4447317654,-74089.0144215839,89164.2155246992,102915.500451982,-79597.8924152723,81021.5867783531,-78353.7049119121,
44,64,98184.8654967386,-23577.4470660027,-85094.4545977658,103430.037609343,103001.577019879,-89951.6451301152,101486.709891165,-89614.0443818622,
48,65,-3876.17246820598,34050.0440061145,-7426.99294412052,9428.36814264871,2337.83600781393,-51564.3345194262,11291.0507668317,-34688.3651242691,
52,66,3555.58139748352,-6496.42276721272,12746.8422349503,-11132.9792300438,3123.1869009956,-32962.8328040639,-15568.9958416219,-6710.12779594991,
56,67,93197.5654599149,-65433.9719335999,-64750.9249747902,75587.6318320789,92596.9740864008,-74164.8091870319,66374.175712368,-71464.5172911307,
60,68,108038.564984627,-35817.1058675177,-88964.4803362465,109959.563310094,111529.795709824,-91190.5576217839,107137.208537723,-91109.3760859223,
64,69,10556.4830370525,30372.0421042493,-22986.6681083045,25502.7592781495,17763.1771878215,-60398.8838671307,27265.2166801949,-48356.3227482227,
68,70,-7495.34457866485,5468.77896413552,20004.2971973773,-16914.0344159644,-7418.36517076077,-29749.1883932577,-19581.0445643717,-622.116103424562,
72,71,80406.6679366431,-60635.7453031236,-53033.1794063067,59505.8869726523,79588.3258686454,-67701.1764289351,49732.4078956137,-62731.4895667421,
76,72,113921.901753175,-46619.7486662565,-90228.4044299608,112772.351535839,116283.542368834,-91050.2333700935,109003.288627063,-91001.4842154365,
80,73,28036.5306778587,23496.2655301411,-39104.0192966484,43327.202597523,35883.736417739,-68927.773109409,44748.2594547581,-61152.8305593527,
84,74,-14968.4491715967,16115.4736418097,23129.0487204848,-19106.6287883078,-14098.7651465851,-29129.4862782343,-20291.1371339723,987.902401435662,
88,75,65310.0315105953,-53072.3620143368,-39526.9590052317,42619.9039959793,64406.2834270338,-60450.4046381002,32921.504428566,-52174.291273867,
92,76,116201.958501572,-55536.9771167013,-89248.4145460623,111924.862793072,117576.456675107,-89748.0877933607,107132.939354532,-89698.7798450923,
96,77,47250.2243221074,13885.1718765702,-54606.9657334048,61682.8127721325,55101.8557073898,-76544.5547156995,62501.9371511861,-71952.9699627125,
100,78,-18740.0601792407,24762.8047779566,21970.9601367665,-17890.1797998166,-16864.0112118734,-31294.9232810644,-17856.3392587113,-2489.22437300973,
104,79,48987.2677907071,-43157.6199123406,-25152.0827593902,26058.8036249642,48065.5042011147,-52735.7670945844,16972.9983178375,-40078.1083200107,
108,80,114943.979971883,-62216.8406506587,-86172.9933229677,107475.479838309,115544.973676798,-87363.1790117239,101605.12943329,-87254.7283476267,
112,81,66528.7380252764,2114.45267372759,-67962.4459698732,78794.5036643152,73860.6690002285,-82682.5896123158,78769.6932279698,-80238.4934113614,
116,82,-18527.5621447041,30871.3577236364,16284.6539955919,-12963.5423974445,-15377.9107782734,-36029.6486055432,-11975.9082169423,-10255.3603357506,
120,83,32808.2928428999,-31622.0187094234,-11075.6470055159,11167.5573787162,31952.288085495,-45080.8087087642,3204.03316069045,-27613.8368384644,
124,84,110560.400552797,-66168.4502564013,-81210.7495916783,99921.9313170828,110621.845498305,-84017.6593086313,92959.6981954215,-83575.2065271385,
128,85,84223.9435582094,-10708.7654720265,-78227.6187214397,93109.3207728053,90417.8801677084,-87194.4009893419,92109.4154845971,-86123.7077264437,
132,86,-13772.6755467267,34147.8552398509,6156.96682416997,-3752.54496962368,-9081.98315882482,-43081.0651875812,-2101.53336543243,-21412.5241532951,
136,87,17441.2003089428,-19177.282652531,1858.41344099205,-1390.63613303138,16749.0114866509,-38200.9417654206,-7800.6917596688,-16056.7332573811,
140,88,103340.787093733,-67288.898502457,-74230.8585918973,89417.9078242669,103043.173616311,-79676.7940731995,81300.2459764774,-78416.1780376647,
144,89,98295.0595969033,-23588.9805661417,-85127.8034004931,103490.320264139,103048.359221024,-90001.5565754839,101548.132484929,-89657.4738213389,
148,90,-3774.87436233453,34017.9916045656,-7399.12031878475,9461.91811107613,2339.06535375897,-51509.5950972551,11322.4773195359,-34593.660783012,
152,91,3653.70555564231,-6585.24859967811,12607.2555908269,-10942.9894021737,3228.41891389119,-32849.4647561866,-15444.6754389614,-6636.34468750294,
156,92,93321.8188073419,-65505.5869228348,-64935.304514802,75877.0645710307,92731.7774572107,-74252.539784019,66641.1896516311,-71539.1274141225,
160,93,108050.411409189,-35801.8843295436,-88993.761121483,109983.569083639,111552.594489168,-91227.2144826906,107165.84112237,-91144.758897395,
164,94,10552.1467986282,30342.4483945904,-22947.66431423,25497.5513216914,17779.9856996519,-60363.2998899579,27256.6336103241,-48273.5542385047,
168,95,-7449.4564472981,5393.20771613213,19995.4012030841,-16902.8585437368,-7368.7890015589,-29596.5036268835,-19585.7384307073,-464.268084081183,
172,96,80473.4102455867,-60682.8627804354,-53085.77306101,59567.6448425823,79659.1585468243,-67721.6953303451,49770.7411373545,-62718.9725898472,
176,97,113907.641340213,-46606.0470469054,-90239.312081255,112770.697506749,116269.080790172,-91063.4432510666,109003.087461363,-91014.6493929207,
180,98,27960.4900432217,23518.4608123852,-39069.5305549539,43253.7324134985,35787.8474340257,-68874.6430128387,44682.4112155928,-61085.1271253976,
184,99,-14935.0109618915,16062.7011731507,23131.1944879525,-19107.0758231969,-14075.4969806072,-28839.8970770713,-20296.2109799637,1163.81063029893,
188,100,65364.7262292774,-53125.4474074182,-39540.3924036494,42640.6911183227,64454.4737880795,-60396.2240095406,32920.2080273876,-52091.27689496,
192,101,116164.832254032,-55619.3209432746,-89233.8859121664,111896.587836336,117542.884354935,-89734.3638222651,107102.272761139,-89684.9441152745,
196,102,47171.1438502245,13831.2371171996,-54561.614043905,61592.2211518551,55011.1299766457,-76498.0854389769,62411.0326064864,-71877.1528455201,
200,103,-18735.4780716274,24715.2179140112,21980.2808142043,-17905.9377796576,-16869.5320927539,-31015.7946963066,-17871.98547983,-2297.51346081656,
204,104,49002.2658112366,-43185.0007992984,-25127.0935090892,26044.4985085128,48076.4565558978,-52625.1259595306,16973.0430213264,-39946.1436207466,
208,105,114912.195791268,-62248.3566103407,-86148.5405145336,107442.443960004,115514.038862471,-87341.5872265801,101579.961369033,-87230.6778705928,
212,106,66447.4670824369,2101.08633054332,-67928.0466351565,78723.7156896252,73776.0452957207,-82649.1737543552,78705.9460527833,-80188.5149107593,
216,107,-18546.2034995798,30847.7095780026,16288.2749781936,-12984.0389471101,-15406.4316041984,-35822.0232512979,-11991.7556037612,-10100.3509879531,
220,108,32778.1626913741,-31631.1605729056,-11046.0532958571,11158.8401983786,31918.268730434,-44927.341631334,3215.81253001839,-27433.0559293098,
224,109,110511.025549296,-66175.0887245046,-81170.67291387,99874.813839771,110571.79994247,-83980.7789302801,92921.2531949584,-83528.2231602935,
228,110,84162.2303917683,-10708.6313615598,-78172.1640434461,93045.8194668078,90356.055242545,-87148.311692275,92043.8131146208,-86059.5805716015,
232,111,-13766.7970379349,34117.9486057697,6186.20290591751,-3766.55951339716,-9086.7440803938,-42889.2201649213,-2119.81709239687,-21213.6830346206,
236,112,17321.1937929623,-19122.6549890822,2050.61609156324,-1623.98834514479,16624.5346217793,-37930.0833261112,-7988.78168926021,-15794.234370498,
240,113,103172.679623685,-67276.4262290509,-74043.0815867283,89147.2058471687,102871.512218894,-79551.0878623829,81023.9337115209,-78269.9752771825,
244,114,98031.4431227974,-23668.7986455916,-84992.1730151383,103309.159375329,102862.839742045,-89871.5364779873,101373.9006369,-89515.8531684701,
248,115,-3939.67377420351,33926.9305976547,-7318.11759687872,9381.87651418168,2281.71077748666,-51240.1224661019,11239.0382574842,-34288.6712299193,
252,116,3636.31589845608,-6620.05026579502,12715.8627171353,-11054.591662239,3204.59195430183,-32471.8096818697,-15495.4362506194,-6343.08980024931,
256,117,93215.0221723345,-65486.945567959,-64737.1115967168,75630.9271610889,92614.9448889428,-74119.7704219545,66425.4729658929,-71374.1715400424,
260,118,108023.656371076,-35934.8995607972,-88924.7836380939,109943.179481409,111505.834639768,-91157.3652812678,107122.94812476,-91073.3674256048,
264,119,10561.9368626996,30295.3309172786,-22920.0822615722,25489.2588244985,17740.3784084771,-60230.7987488268,27255.0913399567,-48115.1250738055,
268,120,-7420.51093822848,5390.59256203086,19977.72097322,-16865.7322961965,-7346.21373965904,-29305.5733210532,-19535.3128952161,-271.305474198517,
272,121,80472.7173415086,-60648.9328323523,-53052.8936449163,59580.586502622,79653.6600176883,-67655.8247394353,49818.8197396779,-62628.7385974811,
276,122,113936.519794049,-46601.9790294145,-90227.040973549,112795.932626239,116298.27216843,-91049.3169485708,109031.585935543,-91000.478386936,
280,123,28020.3256631286,23521.6571118423,-39102.231157092,43336.8361993833,35876.4497490465,-68858.7285707866,44758.317739763,-61034.0757410617,
284,124,-14954.0546481675,16079.55438847,23126.0312349834,-19100.504410327,-14085.1305824674,-28715.5543226664,-20283.7834100465,1298.4575388977,
288,125,65343.0450371558,-53087.7176627776,-39529.3059383995,42644.2897491801,64435.9218401816,-60372.4641051846,32961.6481616078,-52038.2362053676,
292,126,116192.61547239,-55463.0375460431,-89245.3747088164,111926.114490761,117570.533462826,-89746.0761363597,107140.226023224,-89696.7011328579,
296,127,47174.116632237,13947.7791127895,-54571.7840876322,61648.4134374158,55064.0812592603,-76501.8405320454,62461.6816594221,-71844.4969468709,
300,128,-18763.9988975524,24738.4190247558,21995.1000207782,-17908.2847128254,-16879.1209911252,-30933.6743871778,-17876.5005322099,-2163.73827025154,
304,129,48987.9606947852,-43190.8569563457,-25135.4530615155,26057.417816808,48066.845305782,-52623.2931164853,16999.8651146728,-39917.689850055,
308,130,114980.927405468,-62187.2916444888,-86193.4004656554,107509.610952093,115580.445895248,-87386.5589364241,101654.839712958,-87274.867269381,
312,131,66507.3474058327,2188.32518915238,-67951.6277255568,78811.9827284792,73823.8556771106,-82695.9559555001,78789.1168939015,-80205.7257539899,
316,132,-18573.5396830487,30882.8018167975,16338.4322927513,-12987.7940401785,-15435.7347411793,-35779.6219920661,-11999.0422724536,-9963.29009095312,
320,133,32762.5388219999,-31660.9554482645,-11012.615086152,11122.5186136387,31902.1531226818,-44933.0189744257,3186.46468954857,-27389.7829520444,
324,134,110577.097305906,-66271.7376675293,-81217.5668737372,99929.1956340308,110637.42466419,-84037.7535268967,92982.7428439549,-83581.5991260528,
328,135,84181.4528919998,-10806.6884644852,-78193.0182210229,93083.3703974927,90390.3651702839,-87195.5632800535,92078.5253737599,-86093.7787406181,
332,136,-13811.031140212,34101.8553497619,6253.54871196135,-3805.40684526048,-9120.87519417706,-42807.0775040481,-2167.7615842535,-21112.3402252603,
336,137,17355.9284038458,-19198.6062167414,2089.75399610448,-1676.02320623674,16654.7765320273,-37874.2263167174,-8029.46186416887,-15755.8787770127,
340,138,103289.243971019,-67357.4065992125,-74110.1815235831,89225.7945806735,102983.829734782,-79640.293674504,81112.2901573527,-78352.1179380558,
344,139,98194.3649881321,-23696.604215694,-85082.831690649,103454.423362544,103001.152336735,-89981.6635229187,101509.866298421,-89623.2085970889,
348,140,-3900.78173885128,33966.5378888295,-7275.17989578007,9418.60043032175,2294.83125148192,-51248.9290534173,11256.9643565374,-34292.2251572877,
352,141,3575.96618842676,-6629.43799846625,12842.8876808748,-11150.1453697855,3143.3928779832,-32357.7710816587,-15579.8140859382,-6287.92569493362,
356,142,93240.2572918245,-65512.3818531492,-64731.031922225,75612.9340068023,92640.7164502998,-74181.7294575846,66424.9812275149,-71430.2297151363,
360,143,108017.889621006,-35864.8268419298,-88959.3170832774,109959.13862695,111520.989122509,-91209.2213284041,107143.824654081,-91124.284699474,
364,144,10477.2684547029,30328.7020717504,-22815.0961178656,25451.5737833469,17703.9227132705,-60189.3139111178,27201.2459875638,-48057.8152010221,
368,145,-7451.89278744373,5343.67625041917,20071.6430034212,-16905.8983809827,-7375.5392283844,-29111.9401588369,-19586.5654452521,-151.969510551633,
372,146,80503.4733418791,-60728.5497461021,-53044.5787959789,59592.4552789277,79683.544300025,-67694.2026846651,49819.266774567,-62650.531548325,
376,147,113978.541073625,-46694.8728793708,-90269.5092880141,112826.755681843,116325.004854799,-91099.7648358065,109065.873511538,-91050.8145154494,
380,148,28048.9582477758,23449.0139423625,-39031.8231620578,43333.5057894594,35831.8133153693,-68865.8587772678,44737.8211900975,-60996.4354033989,
384,149,-14946.6115172638,16073.7205831671,23214.2759220929,-19140.1564049907,-14090.5173528811,-28520.6471110162,-20328.1739745347,1477.0479770956,
388,150,65411.2402094889,-53137.4502941907,-39493.4984437821,42627.8388652609,64501.4571549245,-60372.1064772733,32947.7900800455,-51997.7795479035,
392,151,116203.277254495,-55569.4765531393,-89269.9169242283,111931.970647808,117583.050439721,-89776.42980533,107153.055924541,-89727.0548018282,
396,152,47150.3120243921,13856.3828297118,-54510.8979357359,61609.9237334637,55032.5205960894,-76488.7200580502,62423.0578450033,-71795.3454608137,
400,153,-18738.5626123622,24681.2879659281,22059.8306727208,-17905.0660616238,-16861.0607816053,-30600.4098773491,-17878.9145206111,-1951.48610490395,
404,154,49095.360826893,-43270.6303323067,-25136.414186527,26171.2999548078,48168.5457430536,-52541.8433596901,17114.5966189619,-39833.1779042694,
408,155,114973.774847242,-62230.5422700098,-86205.4033524279,107517.255248696,115572.198101544,-87401.2216807868,101677.593788814,-87286.9372113868,
412,156,66500.9995104074,2101.82393811034,-67907.8183064244,78785.115931644,73804.7449356014,-82695.7324380556,78760.9089923989,-80182.5022915008,
416,157,-18567.9740986793,30835.5725807634,16411.2319244423,-12995.5500955045,-15435.5782789681,-35507.8024277452,-12010.2404964257,-9795.83082149396,
420,158,32756.7273684415,-31698.0146405714,-10895.3801864839,11077.2116276278,31893.0559626884,-44761.0223008421,3141.2918140044,-27250.44217711,
424,159,110541.043942099,-66309.2885982142,-81175.9479255614,99880.3570723959,110599.359643383,-84022.6437476449,92933.4348956865,-83558.0627391413,
428,160,84099.8019695046,-10870.2568257161,-78142.4809268094,93025.3676206312,90347.6956901188,-87173.0103698981,92024.3670969447,-86055.4454988772,
432,161,-13845.9222133067,34065.6455237443,6322.16856743915,-3832.13953162903,-9126.91016517999,-42604.570699283,-2192.86259327681,-20943.2269267114,
436,162,17379.5541977351,-19238.2582114051,2126.81318841138,-1585.02925455919,16680.9057212956,-37666.5786107276,-7933.32701126659,-15583.1221441176,
440,163,103283.544276183,-67365.0955993051,-74098.3574507663,89263.7701945031,102979.717013802,-79638.3937762253,81174.8526900831,-78329.9226558116,
444,164,98130.1260745676,-23691.3962592359,-85036.6753383488,103393.380748437,102941.897862184,-89958.1941912406,101453.539902394,-89592.6984659074,
448,165,-3947.87686441861,33967.9460487301,-7186.93520867052,9353.66861267908,2243.08696306788,-51105.9002406478,11188.903294671,-34142.4908211816,
452,166,3587.20911588778,-6655.65659471233,12896.4424605897,-11175.4922479978,3156.22277930054,-32115.3664130409,-15601.0929466597,-6108.12826253513,
456,167,93225.4604369951,-65532.9007545591,-64682.7968576904,75568.7222562697,92626.1654646594,-74157.746035784,66385.3515845956,-71380.2512145342,
460,168,107998.197734141,-35946.4330609361,-88940.1392865347,109940.251402885,111493.943511718,-91198.2913253655,107126.077368984,-91112.0582952569,
464,169,10438.488178073,30288.5806904531,-22762.1895387399,25429.9149429697,17654.5030062798,-60096.2188954614,27177.4637314634,-47963.066156276,
468,170,-7448.09299088633,5307.62288661276,20114.6254080087,-16889.8945319527,-7374.22047546154,-28805.3636318879,-19556.7482181487,6.83963380332396,
472,171,80499.6735453217,-60781.3445665055,-53002.9374960586,59612.2589245151,79677.5763842555,-67660.0492191373,49884.8691445433,-62602.3411872794,
476,172,113931.200078869,-46879.6547507828,-90245.0788313244,112788.847123247,116283.11768569,-91081.0564256974,109036.704485024,-91032.3072710404,
480,173,27939.9711418117,23320.4467082556,-38930.7932771198,43242.1095063817,35733.420936277,-68760.9396887946,44650.2247035771,-60875.5124658957,
484,174,-14940.4871392831,15996.1376781628,23240.8968497392,-19125.6054193503,-14085.6670243343,-28101.5295507347,-20322.6754453987,1672.13400270152,
488,175,65408.7591658544,-53200.2363443656,-39483.4178070328,42671.1788977598,64499.0431665234,-60288.9356361551,32973.539289658,-51921.9177272222,
492,176,116183.495960652,-55774.8220294502,-89254.4718688097,111915.229191211,117562.218613889,-89762.5270202788,107140.918927302,-89713.0179063103,
496,177,47106.1449773484,13663.9119582071,-54420.619239881,61572.8421894124,54986.8336304228,-76447.5928482524,62381.0812689163,-71732.7605763388,
500,178,-18737.7803013063,24626.5708955015,22112.714900102,-17920.980503676,-16860.4349327606,-30255.8130330817,-17894.8066109188,-1771.50985854982,
504,179,49109.4200741553,-43298.3017919423,-25096.5610261632,26114.1912477244,48188.1929264299,-52407.1070441135,17087.305138982,-39710.131551043,
508,180,114949.411445786,-62343.2844690424,-86176.4578433583,107479.592559289,115549.488729178,-87377.1935554974,101645.697849476,-87260.6739116518,
512,181,66389.3525468531,1989.32760826678,-67827.3967298742,78710.349346441,73730.8277166877,-82637.9978821275,78678.7216280367,-80103.913557996,
516,182,-18575.9536714499,30778.5979841468,16451.2415470173,-12998.5005257726,-15431.5996684551,-35169.6652376253,-12023.2715634431,-9622.91772638771,
520,183,32802.7272585305,-31728.8823996642,-10937.8261492045,11187.3163208146,31936.7312713541,-44584.5999818564,3268.40618472173,-27179.2965745087,
524,184,110538.786415909,-66218.8310884036,-81176.663181384,99901.9712092842,110596.409213115,-84015.6700033748,92979.8371171757,-83546.5068872579,
528,185,84089.1848908883,-10749.4009434463,-78094.6705454195,93000.17720463,90287.9494771897,-87152.335006277,91993.2981721518,-86019.4591903042,
532,186,-13840.1554632372,34074.0944831484,6380.14899255621,-3835.71581074188,-9164.79637203173,-42371.1737836807,-2212.53212839748,-20782.920215478,
536,187,17359.5046829587,-19254.2844121795,2152.89767419072,-1610.17496707141,16656.4752646059,-37411.813427426,-7955.14231385497,-15447.9611453964,
540,188,103255.314022936,-67362.5698521817,-74063.8463573273,89221.301880038,102948.357516331,-79610.4987991451,81130.7750500173,-78290.4271233591,
544,189,98089.2000304699,-23749.5331465641,-84993.7823407391,103366.55865509,102906.269181522,-89928.220501926,101422.91801249,-89552.6888433324,
548,190,-3956.50463777836,33902.2989752649,-7121.31048694974,9371.0135663764,2240.40475373325,-50900.0853777034,11193.2171813509,-33928.4281645332,
552,191,3662.53449470216,-6673.35917632093,12860.8584834169,-11103.9219622519,3225.42378013418,-31798.5751388759,-15517.3409601856,-5921.91587947796,
556,192,93256.0599751544,-65498.0320332089,-64696.0961456413,75617.6949283713,92652.3840609055,-74137.8753349632,66473.1492368161,-71337.8723070469,
560,193,107942.407779981,-35867.4196442866,-88890.227841166,109882.919178357,111446.714275684,-91159.9357318802,107071.762629958,-91071.0651959259,
564,194,10432.0061721809,30283.1045130616,-22656.6446014219,25383.7585906695,17653.8324539462,-59919.0589689087,27112.7107277764,-47738.6769936892,
568,195,-7394.60526640478,5285.18173517963,20137.3794838642,-16886.5641220288,-7328.04177141688,-28397.9807374454,-19547.1146162885,251.255959422107,
572,196,80454.4559662886,-60702.4652603227,-52905.6180007002,59496.1192603254,79624.1110115184,-67558.0358574433,49780.3523874703,-62479.6077584753,
576,197,113836.719255056,-46718.789245938,-90162.8691152178,112689.046584254,116185.373507187,-91005.6192881607,108939.340286176,-90956.9148369926,
580,198,27902.7331355492,23364.6808105327,-38812.39608674,43196.4001889706,35689.8126828447,-68611.7864980443,44597.8992698073,-60681.2534548346,
584,199,-14895.4483742056,15937.8219768789,23261.996896505,-19088.8144479769,-14044.0480761585,-27638.2225916651,-20277.6590320658,1931.68245931655,
588,200,65395.683395348,-53182.8690389239,-39402.8397682714,42640.3781939004,64480.8488465367,-60157.1497508466,32983.4411124517,-51791.6070570477,
592,201,116127.147212881,-55686.2197144293,-89190.3670657119,111855.214757349,117502.964139338,-89702.5349381608,107085.106621397,-89653.0481759367,
596,202,47078.0488345681,13732.4424067071,-54317.1530147973,61503.7752990455,54930.5295861399,-76325.1052886373,62301.4196516776,-71557.7240655093,
600,203,-18674.5919197311,24561.303801692,22106.9034465436,-17859.714372124,-16810.478783903,-29860.5000806451,-17841.5424038818,-1503.44538729732,
604,204,49088.4988413452,-43289.2716871824,-25074.902185786,26183.7498764694,48159.873266205,-52253.7740771501,17163.9269189748,-39588.4486542283,
608,205,114887.184189222,-62280.2301979339,-86114.7670286616,107431.111625565,115483.72989699,-87315.0110024227,101603.296590244,-87196.5914602985,
612,206,66404.3282156382,1983.73967215296,-67753.8818423607,78670.831462244,73711.0017193558,-82560.8843637567,78631.4029850248,-79983.6835245709,
616,207,-18495.2862257107,30702.1773698541,16444.5360236807,-12953.0817810395,-15366.2431676678,-34843.4191755556,-11984.4242315798,-9344.68321140804,
620,208,32805.7894475209,-31727.496591508,-10905.2149540442,11130.9005178095,31935.5689806424,-44374.2700665319,3217.84653876383,-26990.8043135171,
624,209,110486.282168184,-66216.5288587247,-81106.6128142611,99830.3115165605,110539.613430454,-83949.799412465,92900.7342935484,-83471.5614880993,
628,210,84063.0780533645,-10819.8312902249,-78038.7017773034,92945.1695615255,90238.8426946214,-87083.0893019544,91942.2244360715,-85923.4360961242,
632,211,-13763.4889797555,33979.3901418913,6346.5990241288,-3798.00841784578,-9106.52537423675,-42094.2803733683,-2168.09686042033,-20519.3037413721,
636,212,17517.4868127688,-19316.0869855984,2026.20798661804,-1480.1995730638,16811.2834467034,-37203.5622243359,-7838.89089094292,-15336.6718097534,
640,213,103313.62972422,-67287.8479704676,-74096.2787385319,89310.9547270483,103003.454566414,-79603.4356478972,81226.5299232638,-78272.8139487283,
644,214,98059.9863004668,-23542.6230481414,-84950.9787501071,103310.634590463,102865.164323469,-89883.6064199932,101375.956997389,-89500.7210374738,
648,215,-3924.31812576272,33931.9597401571,-7124.75265559586,9320.31980995176,2244.94215785768,-50723.1713203396,11160.0918960681,-33759.6501421511,
652,216,3723.53240532069,-6773.11501182497,12775.8995027422,-11019.9017548444,3283.80653665144,-31583.4843019824,-15467.8989014505,-5828.06090451013,
656,217,93278.5011265875,-65511.6218938377,-64728.4167681237,75705.5819875696,92671.6736163704,-74120.1951050991,66529.4309293545,-71313.1065741904,
660,218,107914.244581967,-35847.7724609104,-88864.746852487,109862.243814736,111420.20510676,-91130.3420222213,107053.769475671,-91039.5715879883,
664,219,10420.4279685531,30247.0287975107,-22674.2130725638,25379.1541313117,17656.7605324698,-59812.888182746,27126.0547192162,-47597.6374861762,
668,220,-7337.8318354883,5194.74657711346,20032.0133605019,-16811.3281501923,-7266.39566020914,-28230.7226336864,-19495.3032726411,330.023506882609,
672,221,80554.5917814483,-60733.3777229044,-53041.6730691997,59689.1265736969,79728.4489546357,-67586.8919595351,49940.1226568368,-62511.9060292132,
676,222,113847.291630184,-46617.8040644889,-90178.4929845921,112722.216573026,116207.81465862,-91017.6221749332,108970.498617947,-90968.6942063205,
680,223,27814.3543379729,23450.019770863,-38836.0218806293,43123.1982258795,35646.3608916236,-68558.7458084519,44544.7915249814,-60593.3216921475,
684,224,-14822.02289367,15862.1613218977,23146.0136945264,-19044.9156218667,-13970.2426159671,-27553.3753697128,-20248.9146886962,1995.54139322536,
688,225,65593.2728163329,-53239.1954349512,-39633.6885850058,42897.2444411808,64669.8104941619,-60222.8191760563,33204.5222168591,-51867.4688777291,
692,226,116190.827332834,-55491.848944646,-89244.3912320603,111947.214537527,117565.03493369,-89746.925502649,107172.144314306,-89697.4163886805,
696,227,47011.619450047,13917.559554286,-54354.5698350155,61455.4508275331,54861.4179922841,-76335.0741666644,62274.1728751866,-71563.0437806897,
700,228,-18681.6327192346,24560.2532697026,22056.7908354748,-17907.234180836,-16820.6711793746,-29815.0142806785,-17891.6103114617,-1478.85846839648,
704,229,49251.0630787686,-43350.1801908231,-25242.6073244342,26267.8371391102,48315.9331459919,-52305.2948481196,17179.5731400935,-39650.8100212586,
708,230,114983.542559569,-62035.8362240596,-86191.4335121433,107536.656562883,115578.188369058,-87378.0429217867,101691.496573865,-87260.1151180405,
712,231,66337.0494648277,2349.39185969733,-67778.0217263724,78615.8685226284,73624.4334130804,-82587.6170501252,78603.3738974779,-80006.1023242596,
716,232,-18553.5348717612,30786.4657981951,16431.9519915524,-13034.8221105125,-15442.6861337049,-34806.0470588263,-12055.1675027809,-9319.58220238474,
720,233,32973.3604757023,-31808.5887203918,-11117.8918025365,11349.8135030047,32097.1720930543,-44444.3427853993,3393.41949146026,-27079.3619250491,
724,234,110617.688073836,-66097.0587846111,-81234.5541995232,100018.982591508,110669.767638417,-84041.9333031098,93082.4092724811,-83565.0588351558,
728,235,83967.4349388403,-10518.216850545,-78035.684291802,92887.2561916418,90184.3491416394,-87113.5994331359,91900.7172466179,-85952.0239772825,
732,236,-13883.1602195692,34076.7543407386,6427.266469868,-3954.73884996639,-9216.6747709125,-42055.0083583603,-2310.14219643381,-20480.2775955531,
736,237,17630.1396048235,-19390.4512394013,1904.7486072479,-1357.15321983733,16910.8157647629,-37226.6962798472,-7746.9805177427,-15364.8350077671,
740,238,103432.943336122,-67262.9928306333,-74214.541818445,89481.8338134091,103117.828442792,-79685.9806401707,81390.6587827991,-78353.2802287674,
744,239,98024.4917302718,-23348.1181678913,-84969.575401494,103309.561706729,102846.321802893,-89928.0193362259,101379.689738713,-89541.8258955271,
748,240,-4063.12245883017,34028.7204419041,-7018.53716594424,9181.11314548411,2116.3972754952,-50694.5610874368,11030.2282607828,-33689.4880163059,
752,241,3774.82965884562,-6839.92437600188,12740.9637261586,-11023.9697723353,3328.9347087067,-31564.3065052398,-15502.5888088451,-5818.20378520534,
756,242,93391.1762703867,-65478.2283876215,-64818.8742779344,75812.4903812993,92779.3643211561,-74192.3912396897,66595.4132789866,-71386.0179646037,
760,243,107919.072558769,-35537.2396751928,-88890.8536900108,109881.265149267,111422.417929461,-91176.9230576662,107072.924920669,-91084.6550565547,
764,244,10288.3068070777,30443.5900382507,-22533.330027262,25212.7453938419,17497.5714084591,-59784.9932056657,26978.0638191776,-47506.5094240319,
768,245,-7303.0748728603,5127.959564681,20021.999778986,-16794.6984523175,-7242.03225875285,-28230.7226336864,-19500.0194907212,366.300388133572,
772,246,80703.7226204542,-60800.4776597592,-53180.2091813337,59913.9404194284,79871.1424912384,-67684.0326409379,50141.6683365903,-62607.2585710595,
776,247,113872.035011296,-46477.3680540762,-90223.2411769916,112767.769428226,116234.9049729,-91072.1157279153,109018.711330737,-91023.4112767472,
780,248,27707.0883163319,23564.795978641,-38686.6004689456,42952.4085464965,35509.0764771791,-68529.3532644931,44392.7102557075,-60504.4735079376,
784,249,-14814.0656726439,15784.7572308489,23196.2380643175,-19079.6055292613,-13977.2610637261,-27498.8594649863,-20295.5851311189,2094.17964150663,
788,250,65721.7953469509,-53328.4235988168,-39726.0012896063,43060.7027483824,64789.7499549091,-60291.7743077009,33340.1526022139,-51933.7641517835,
792,251,116201.64557715,-55307.8493842899,-89281.5174796006,111985.771296712,117580.03295422,-89786.1528141681,107211.639846759,-89736.6213484551,
796,252,46889.7130357877,14104.9342280548,-54192.4526324812,61272.7029648665,54738.438694291,-76290.9071196207,62109.3287598287,-71457.7223608163,
800,253,-18690.148733872,24517.024995926,22169.5106827629,-17971.0484112559,-16841.1677290401,-29659.3567322918,-17958.8667105277,-1264.59464604791,
804,254,49317.1348353785,-43433.5969011303,-25213.3265391978,26344.5259743364,48377.5345537108,-52304.333723108,17239.297001278,-39631.833390216,
808,255,114980.972108957,-62013.7750522822,-86202.5423291376,107560.885853873,115575.349697512,-87397.0419045737,101711.523736897,-87278.0188653492,
812,0,66181.9060065634,2405.45003479124,-67597.9113695516,78441.8378402994,73474.3861525519,-82536.1856861336,78441.1896397102,-79908.8051806456,
816,1,-18581.0275174412,30718.8517712178,16625.0934153907,-13123.2903150666,-15481.7569830128,-34554.9475616154,-12148.6872015819,-9049.97546076482,
820,2,33032.8384676979,-31910.1103437078,-11039.4148277539,11417.2263642819,32154.5043175822,-44355.5393046784,3420.88978539584,-27030.4339564364,
824,3,110634.876565322,-66050.1201212549,-81232.9672256669,100066.390641497,110687.984310148,-84061.7145969527,93114.1040461188,-83581.3756086082,
828,4,83795.6170792123,-10356.1667032441,-77891.6049470431,92729.8105036987,90000.3495812833,-87058.524734798,91758.4260414155,-85860.9853221161,
832,5,-13947.7567610451,34036.6776629302,6650.89567314335,-4068.28571179935,-9315.08950174922,-41776.9079538474,-2418.54815704205,-20139.9275827322,
836,6,17655.8664626916,-19532.4965754147,1978.75523313942,-1286.36524514738,16932.765177818,-37085.0309234894,-7714.23521211567,-15286.4474399623,
840,7,103479.256150634,-67274.5710342611,-74214.9888533341,89578.9297913229,103162.643690424,-79716.9154544968,81463.5925249568,-78378.3588860463,
844,8,97930.8602727485,-23209.8502766908,-84885.1752144307,103215.013827683,102747.5270924,-89897.4197980666,101295.669531306,-89505.9289939319,
848,9,-4132.94930850855,34033.6154739398,-6797.72428247026,9040.38656239349,2017.46845453602,-50515.7471317943,10905.4831749777,-33536.5126772538,
852,10,3886.54367763325,-6942.04949641818,12777.3523661318,-10979.1098212135,3435.19490184723,-31415.0639075117,-15477.2866341217,-5719.81140611308,
856,11,93521.4422370723,-65476.0155649204,-64853.0053917176,75958.916659226,92907.8197965407,-74247.77886245,66734.3964260097,-71420.2831888536,
860,12,107887.735413043,-35242.5095728051,-88866.9820269325,109855.515939655,111389.672623834,-91182.6451042468,107055.46820825,-91090.1982891796,
864,13,10212.2661724408,30586.1941678756,-22322.5083735595,25064.1062932141,17383.1304768479,-59657.3870965704,26841.5840675335,-47427.3171934268,
868,14,-7233.85152028221,5059.45146792549,20077.7450296575,-16787.6129493252,-7180.31909231175,-27985.8816249229,-19509.9213135149,434.495560466714,
872,15,80844.3821483114,-60783.3785752509,-53212.820376494,60055.0469821748,80009.3880306945,-67729.4066821822,50268.2462654407,-62651.2021006587,
876,16,113848.565679618,-45985.0485307036,-90228.7173543832,112771.345707339,116216.464783724,-91089.3489228903,109027.987304686,-91040.5327129999,
880,17,27537.8632590608,23912.9914537658,-38511.4745511382,42810.4302657163,35336.2527890507,-68436.1017866256,44259.449155265,-60452.8186265014,
884,18,-14808.6565504857,15756.8399020243,23278.1795594906,-19103.6560062952,-13978.4010026933,-27241.0991479277,-20331.7279019031,2168.20861914261,
888,19,65828.3014092805,-53376.9939395182,-39737.5571414896,43171.7909183253,64892.2774067256,-60314.9530667011,33432.9793969368,-51954.506570638,
892,20,116220.599856448,-55112.8304139174,-89308.831311325,112023.366930886,117600.328338185,-89818.3616779282,107257.192701959,-89768.8525639597,
896,21,46748.7629352525,14319.5780300591,-54048.4626947001,61125.449672395,54563.9162735839,-76231.9432177476,61976.5370460197,-71361.6769148918,
900,22,-18685.1642948585,24482.4468472537,22241.8409278203,-18005.760670395,-16852.2988977789,-29392.5216069843,-18002.9667023381,-1087.14414681722,
904,23,49485.9799129939,-43540.50529486,-25312.9259124906,26532.6382556722,48548.6148057717,-52318.616487815,17394.9992531537,-39672.9382482694,
908,24,115078.202197337,-61832.8153291721,-86279.4546818083,107687.530837957,115678.368887707,-87467.9416379859,101841.208558227,-87348.6503778279,
912,25,66066.9733365742,2746.0459168012,-67527.8610024287,78359.494013726,73380.2182531617,-82532.7882209764,78371.3851417762,-79909.0957533235,
916,26,-18625.0828057626,30765.7233793406,16712.1534600441,-13194.882952557,-15526.5722306457,-34354.2735998957,-12222.9173449179,-9010.81520447912,
920,27,33189.0548096961,-32008.5027228001,-11164.159913559,11539.0433715634,32311.7041363363,-44342.0388510274,3530.65920241585,-27087.0062216528,
924,28,110714.538182561,-65880.559787817,-81310.8630550937,100163.911302556,110770.126971022,-84122.1537139599,93228.5449777299,-83641.9264843376,
928,29,83713.7202875281,-9991.92267560037,-77860.6924844614,92674.9816745498,89926.5217693474,-87071.533450071,91713.4096280825,-85866.4391477632,
932,30,-14016.041340356,34134.6900623667,6748.66220339086,-4157.02213728692,-9393.70058699853,-41595.545899337,-2507.55280346308,-20036.975447771,
936,31,17797.5541707938,-19583.4362010284,1905.17329039255,-1194.6336859028,17068.7531910841,-36980.3130007163,-7636.71936234467,-15255.4455704028,
940,32,103534.42025595,-67150.0494659006,-74270.1306069053,89653.8528387371,103219.931211463,-79753.7287776147,81553.4241859226,-78408.3325753609,
944,33,97862.7768591376,-22938.4106920255,-84851.6923012367,103155.357021732,102672.358175797,-89898.2691643559,101242.986469625,-89491.0874356136,
948,34,-4211.58274550232,34127.5151523966,-6672.71097573173,8924.33630518154,1899.92063044556,-50307.4512252153,10788.9411793877,-33244.576542923,
952,35,4004.35972265717,-6982.97554051585,12745.7022959831,-10913.3956925149,3542.97501361072,-31155.6719131079,-15421.6084386836,-5590.03717780556,
956,36,93565.4975253937,-65424.0477590618,-64878.4193251633,76020.2051425225,92949.9751865834,-74253.4115020527,66809.9006187797,-71419.6573400089,
960,37,107798.171973011,-35122.3242428689,-88827.1512183131,109795.479154048,111322.282114301,-91162.3720720258,107000.773489567,-91066.3266261013,
964,38,10056.3404031206,30644.1075377592,-22174.7633427099,24935.0026172403,17268.6895452368,-59487.2456177766,26709.8652374584,-47156.5034576063,
968,39,-7183.22481909094,5039.11138047116,20081.2766052814,-16741.7695214474,-7130.56410915424,-27673.1583682487,-19465.4189903044,633.627251819045,
972,40,80869.8854887349,-60741.5808131195,-53220.2635073976,60116.6036864047,80035.4501647294,-67704.3056731588,50357.2285601173,-62623.1506613673,
976,41,113783.991489886,-45929.9291288768,-90189.0877114639,112717.902686346,116152.427035859,-91061.2974835989,108986.278949532,-91012.5930324308,
980,42,27405.3397661853,23917.8417823126,-38324.5469122585,42658.5501621425,35175.1414150168,-68282.8358748956,44111.1900342929,-60180.3732133357,
984,43,-14751.3019742134,15722.8428987077,23298.4302399671,-19060.3606772853,-13948.047333723,-26871.9600882483,-20291.9417967727,2452.41104989184,
988,44,65870.1662266453,-53333.8997762084,-39750.387042807,43266.5176113269,64906.2695987546,-60252.3681822262,33550.8848489386,-51909.3783985827,
992,45,116146.168547412,-54960.0338888209,-89264.6195607924,111969.186302326,117533.47427052,-89776.3180466077,107214.590277027,-89726.8536361281,
996,46,46548.9383398221,14415.2658480723,-53843.6089567672,60954.3470685896,54394.4006436349,-76098.5033033494,61792.604540897,-71176.9173952243,
1000,47,-18629.3296372091,24429.8084890614,22296.8262191804,-17990.494428932,-16801.7616035654,-28999.5332359711,-18001.0444523149,-820.465483720956,
1004,48,49598.5432980708,-43532.6374808118,-25340.8879448042,26616.4125938907,48649.711745943,-52200.6663323243,17494.620978191,-39580.5361366911,
1008,49,114999.077021966,-61812.8775731179,-86224.1788177703,107623.001351714,115601.054203636,-87410.4976547358,101795.298075115,-87289.4406067658,
1012,50,65887.0641454535,2691.57471556362,-67320.0791859721,78168.6995230555,73189.8931491248,-82404.1315798916,78172.1863951905,-79705.0690299355,
1016,51,-18573.0479446707,30641.4029766802,16819.1289090072,-13207.2434672407,-15496.5538378422,-34005.8099038374,-12255.5508918227,-8583.67336793821,
1020,52,33360.1797652459,-32075.3344387215,-11223.3920363655,11670.3598702383,32478.9845918399,-44203.1674627265,3675.3196925306,-26964.6527725044,
1024,53,110734.475938615,-65918.7365673466,-81304.7610288574,100201.730454174,110789.952968353,-84107.2451004082,93287.3524173918,-83619.8653125602,
1028,54,83540.1589918326,-10068.5444555932,-77719.2953490371,92537.0490595161,89772.8982297061,-86983.4675769171,91574.0465014036,-85742.3869660362,
1032,55,-14040.1365208789,34018.9974330661,6890.26050451523,-4217.97534441654,-9428.74812230445,-41294.8478811798,-2588.82374630257,-19681.3815452315,
1036,56,17932.6034107928,-19694.3455570156,1835.01116454734,-1080.63978918073,17181.1824656942,-36822.174408695,-7521.38436095528,-15186.8704184139,
1040,57,103614.551259822,-67206.5099723947,-74309.290863191,89756.2461800869,103294.183706544,-79775.7452459032,81683.533690397,-78426.1245639473,
1044,58,97683.3370546504,-22950.3465235646,-84762.0394542264,103044.000630856,102537.375991032,-89841.4286782061,101141.062514909,-89422.7805045581,
1048,59,-4379.62316031732,34062.1362998648,-6506.05636907296,8784.81671629151,1773.00742542832,-50081.2515713276,10638.3351252479,-32982.1447112733,
1052,60,4049.44319122353,-7116.03547525829,12714.3427985123,-10848.1062469609,3593.69112177981,-31001.8472077664,-15360.8340455096,-5542.09268594893,
1056,61,93636.1737413614,-65486.9902714479,-64931.6611804558,76143.4750131935,93025.6581933091,-74287.4979123471,66960.037286286,-71456.8059392936,
1060,62,107719.40442555,-35083.543966239,-88780.3243136793,109734.347132963,111242.441683107,-91134.2982809899,106950.258547098,-91034.1401140857,
1064,63,9956.20458796079,30622.2698834264,-22017.675282678,24795.1477521834,17128.0076656351,-59283.5765222998,26565.763540955,-46856.6548057383,
1068,64,-7073.70127125994,4908.64424808553,20049.3806659437,-16700.2623319939,-7026.27086952578,-27406.3008911968,-19430.1255858094,810.250736504881,
1072,65,80987.1874436364,-60852.601927829,-53287.5422582081,60229.5917546262,80156.9542475884,-67719.0131210104,50489.7073495039,-62628.4480248032,
1076,66,113721.518364134,-46074.9248951584,-90162.8244117289,112685.045621997,116103.36495678,-91044.2878060684,108963.122542277,-90995.4939479225,
1080,67,27211.907769669,23838.1801650739,-38139.9438548021,42476.2269826206,34991.6112412943,-68138.6000679255,43929.0233169822,-59950.5078733573,
1084,68,-14666.454752261,15557.417637994,23291.6576613972,-19053.2975260374,-13864.6529751602,-26656.9586583327,-20295.6298346078,2624.07244730859,
1088,69,66055.7527608577,-53463.8304667271,-39870.1923930874,43402.4832728485,65104.0378336952,-60284.0406041194,33697.5346443098,-51954.2830531935,
1092,70,116139.798300242,-54983.5255722434,-89272.0179882071,111988.028822902,117536.782328699,-89782.9118112221,107247.000306487,-89733.4921042314,
1096,71,46403.1379107401,14436.4776535604,-53722.0601704192,60799.7847556811,54233.4010283233,-76008.2693109833,61638.9362977667,-71044.0586261819,
1100,72,-18597.2325321713,24326.9234093336,22310.5725420204,-18015.1484030662,-16780.6168533107,-28821.7698123181,-18036.6060777433,-661.052842265706,
1104,73,49754.9831575135,-43646.7431362561,-25474.7078388581,26737.536697094,48822.1778061602,-52243.1793502783,17615.9909505833,-39655.5038875942,
1108,74,115034.705702627,-61773.80672381,-86263.1155566115,107681.272349509,115646.718817558,-87438.9067219385,101865.70607015,-87318.4084675799,
1112,75,65746.1811001517,2752.59497792661,-67242.9433158569,78053.900963533,73060.1189208173,-82348.922771087,78066.7308648504,-79622.6134446399,
1116,76,-18579.641709285,30570.8832229237,16857.8197786593,-13243.2297758138,-15510.7024920824,-33773.6199824357,-12294.4205754305,-8403.33949367279,
1120,77,33432.64412077,-32175.4702538812,-11304.3724065271,11723.1546906417,32562.3118951692,-44164.7448140079,3732.96484148083,-27006.0034997467,
1124,78,110735.414711882,-65856.5316625275,-81323.201218033,100216.66141947,110799.206590558,-84113.615347578,93321.1482550083,-83628.2025132421,
1128,79,83438.5926650277,-9931.52826208213,-77661.1584617088,92445.1386863159,89636.8208094622,-86946.0954601878,91489.9815905072,-85688.0275235209,
1132,80,-14062.1753409118,34004.1111712588,6937.86972020504,-4269.27259794147,-9495.46807950355,-41139.6373676821,-2643.02672660669,-19508.9154850144,
1136,81,18099.526238385,-19800.0469565448,1696.83268032464,-995.010256172449,17345.8477670965,-36791.8877949581,-7443.46617978408,-15202.4272325548,
1140,82,103669.491847693,-67135.7219977047,-74375.0943988674,89826.8776925656,103354.779285762,-79802.2544148272,81772.3818746068,-78453.2819334605,
1144,83,97645.6296617543,-22776.8969865915,-84727.506009043,102983.807383038,102461.134190695,-89825.3130704538,101082.813868858,-89395.4219693449,
1148,84,-4378.14794518327,34090.9476984677,-6437.50356882853,8705.44567173072,1684.40511040748,-49931.1819590547,10550.2469003495,-32754.1122143402,
1152,85,4426.76298937356,-7287.02632034139,12307.8092703592,-10426.6864570005,3966.04883266077,-30976.4332743208,-14998.7134335892,-5556.35309891142,
1156,86,93955.1778382275,-65478.4072015771,-65338.7758539648,76716.9760724278,93355.8381624029,-74452.1408620049,67603.6781196211,-71615.5256766708,
1160,87,107689.877771125,-34781.1695672476,-88802.4078372011,109723.79710958,111205.471897778,-91173.6597029757,106957.567567535,-91072.3168936154,
1164,88,9854.5265024336,30728.6418352892,-21914.0078918943,24657.4610063387,16945.3045064574,-59213.2579342434,26421.6841961961,-46765.2585226606,
1168,89,-6949.80555174417,4779.98760700078,19918.5559056468,-16631.0166276713,-6906.48787098978,-27353.5954777712,-19390.5406463791,789.82124207273,
1172,90,81177.5348994177,-60879.1558002419,-53543.7379531548,60484.2004757167,80359.5281075869,-67823.7310437836,50753.9943759435,-62752.5896135079,
1176,91,113683.229825882,-45748.2317981996,-90177.0848246914,112666.896005499,116068.49623543,-91063.1750301331,108963.569577166,-91014.4482272206,
1180,92,27117.8292772566,24009.3051206237,-38051.8332781593,42357.2262951405,34861.4123298421,-68069.5108258141,43793.9517252388,-59844.3817906835,
1184,93,-14630.4907954324,15496.0620994642,23287.5896439063,-19064.0710668649,-13839.3955039257,-26513.5498659074,-20314.1594307613,2719.84967229958,
1188,94,66125.4007965804,-53503.0577782461,-39926.1164577146,43426.3325841823,65173.7976281402,-60295.4399937916,33732.6492348491,-51982.9826930741,
1192,95,116123.68269249,-54892.7104345215,-89278.3658836324,111982.284424577,117524.533572737,-89790.1984799145,107251.157730956,-89740.7787729238,
1196,96,46260.176153204,14508.8749538511,-53601.2042881494,60677.2301408327,54098.6423610023,-75934.1285746251,61509.8549735373,-70933.2386771725,
1200,97,-18568.108209146,24246.4571292945,22324.9894171941,-18010.2980745194,-16756.5887280212,-28587.3670682153,-18044.1609673692,-510.826767781588,
1204,98,49936.2334533016,-43760.8934951894,-25654.7287887012,26969.0113626732,48997.7731106011,-52260.1443243199,17888.5928259603,-39725.4201442504,
1208,99,115111.193372153,-61683.3715657439,-86336.1163540025,107794.30512122,115729.934362165,-87496.8200918222,102009.986580609,-87376.8135758416,
1212,100,65525.1223474887,2989.18819298603,-67169.1602074099,77923.1879619584,72903.0308607854,-82317.943253272,77937.6048371321,-79570.2433073811,
1216,101,-18652.4636927204,30591.3574208447,16917.2307154215,-13322.8690413081,-15569.7558009333,-33554.8634594516,-12389.5495998322,-8265.98802399493,
1220,102,33613.7379543469,-32282.6021650555,-11474.3797748542,11930.4447687202,32737.1025368098,-44147.8692469441,3953.19657959897,-27081.3065268167,
1224,103,110853.163701673,-65748.3268676194,-81430.5119431629,100376.074060926,110918.72136816,-84194.4616072728,93509.5287572776,-83710.5463398154,
1228,104,83269.144090312,-9654.03135466949,-77595.6678504548,92337.9844233971,89518.2001016379,-86933.1538001482,91386.090682279,-85656.2433429055,
1232,105,-14178.2703016127,34045.1266223343,7073.50010555984,-4407.16050948626,-9594.6651213962,-40929.1062866576,-2796.96319067039,-19319.2162298222,
1236,106,18139.2452882821,-19879.5297598278,1684.8968487855,-1007.54958481188,17385.7232792048,-36677.4468633469,-7442.32624081686,-15180.2766537996,
1240,107,103695.755147428,-67097.3887559639,-74395.836817722,89836.712460126,103381.914303531,-79822.7509644927,81805.9541947787,-78473.7114278926,
1244,108,97476.7622323945,-22565.4494840443,-84650.5266011389,102868.360622926,102324.319162884,-89793.1042066937,100979.101774585,-89352.6630822018,
1248,109,-4546.30011872055,34127.6716146078,-6244.20568277904,8537.67347784918,1534.9613469793,-49678.8307641543,10372.1929040185,-32510.5229032663,
1252,110,4417.97875380263,-7363.24576893398,12467.9148158926,-10639.4303607262,3950.96140515344,-30678.1939480536,-15171.9841566067,-5433.64202185178,
1256,111,93898.8737939446,-65496.8473907527,-65165.2816135027,76453.8960401888,93291.8227662829,-74383.0516198935,67337.0441600137,-71547.8669462045,
1260,112,107497.071623453,-34789.7526371184,-88703.3896092641,109595.96748304,111075.89883517,-91101.5976788518,106833.805958486,-90996.745645612,
1264,113,9539.9033474807,30734.8556202478,-21656.2028713468,24403.1652096707,16770.6926787725,-58922.9311255135,26153.2844487768,-46441.3146902698,
1268,114,-6857.96223377731,4609.89083169589,19920.9028388146,-16591.7222609189,-6815.73978850124,-26984.612880303,-19344.8760324569,936.113409532715,
1272,115,81274.6532290761,-60941.2936498277,-53550.2199590468,60572.0651831705,80451.5055360205,-67807.8389534758,50889.021264198,-62749.9968111511,
1276,116,113628.5351072,-45687.3903497923,-90146.3288243209,112647.718208756,116028.598371577,-91045.1371723577,108953.533643905,-90996.3656659562,
1280,117,26851.7317595162,24111.0949648732,-37836.8989034771,42140.5484843908,34618.8511990131,-67876.1011810423,43557.8726003018,-59613.3988634823,
1284,118,-14565.1119429007,15362.7562955327,23261.1698819601,-19014.0702145183,-13781.7280032311,-26156.2572307893,-20282.1070292124,2859.23515072288,
1288,119,66309.2215429809,-53599.907886971,-40115.3463262732,43719.4757127137,65354.2656128723,-60330.755750031,34065.9137446778,-52072.7472988066,
1292,120,116120.531096522,-54684.4145279425,-89298.5495088756,112016.504945338,117526.232305316,-89807.5657853563,107315.59781022,-89758.0566713878,
1296,121,46023.3817724445,14766.9705470765,-53405.9618003323,60434.534899537,53818.7761686774,-75812.4680295548,61283.9905958165,-70762.9183844231,
1300,122,-18528.4562144823,24170.7964743133,22360.7522083226,-18052.5428715399,-16745.725780216,-28224.6876626834,-18094.027709249,-303.424930980793,
1304,123,50134.8957580204,-43863.0409673501,-25809.0899359095,27091.5659775217,49193.3061710961,-52226.4378936813,18013.9190571212,-39778.7067030319,
1308,124,115118.435337357,-61542.0638372974,-86353.9977495668,107817.461528475,115736.326961079,-87502.3633244471,102052.454895074,-87382.7814916112,
1312,125,65415.8893723356,3157.4968287345,-67017.1236416249,77756.8015762331,72701.4851810319,-82236.7393656658,77775.7782072757,-79442.994826197,
1316,126,-18591.8010582687,30479.933974735,16978.4744952291,-13365.136190073,-15570.5604637337,-33296.8796249485,-12444.9372225925,-8000.60576207707,
1320,127,33861.0823584893,-32479.9010133625,-11684.3073587784,12058.2743952601,32991.2195195221,-44128.1997118234,4081.80851719481,-27110.140277164,
1324,128,110918.095519316,-65819.1148423093,-81490.0346386474,100452.964061852,110986.536560838,-84220.2778721187,93608.1893573033,-83736.250845939,
1328,129,83132.9772630903,-9655.9312529482,-77524.8798757648,92256.0205764795,89400.093483936,-86900.4531980101,91296.1025591019,-85608.2317958154,
1332,130,-14219.0175317547,33961.0840631824,7149.40662973006,-4467.30905381549,-9647.37053482181,-40725.7948190921,-2883.46444171243,-19146.6384108828,
1336,131,18368.1495032489,-20104.9247509151,1414.44074087629,-788.278971705314,17612.3476162371,-36654.7821944692,-7238.34422091773,-15290.1354777974,
1340,132,103850.406867314,-67116.7677184066,-74559.608049346,90055.4019278767,103536.700133884,-79906.4582474778,82058.7524245682,-78568.1475482163,
1344,133,97367.5292572414,-22391.9105400932,-84628.1525049391,102808.256782086,102230.955926294,-89785.5269653233,100929.25738445,-89336.1898465383,
1348,134,-4673.5038964157,34159.3663882454,-6170.1543533986,8409.70974084255,1398.2804296351,-49520.0439715438,10244.6091466676,-32322.7011946084,
1352,135,4554.63731940238,-7554.75551542705,12266.6150053281,-10519.0885685788,4085.00481665192,-30657.5409361769,-15069.7025739792,-5527.29583111952,
1356,136,94069.4623076275,-65559.499330461,-65376.0809154607,76692.3220982936,93464.4005852223,-74486.9872316107,67603.8792853211,-71675.3836483221,
1360,137,107536.79067335,-34642.2087719689,-88737.3866125806,109622.074320564,111085.688899242,-91141.517894449,106868.518217625,-91034.4306867636,
1364,138,9549.96163248559,30803.2966617699,-21629.8948681229,24335.4170722267,16671.7638578133,-58877.9147121805,26076.7520757618,-46313.3509532632,
1368,139,-6743.32013646604,4497.52861231907,19806.7301281369,-16601.8923046461,-6711.80417678406,-27014.1395347285,-19364.1655879218,934.124104276193,
1372,140,81432.8365245863,-61015.4790896748,-53725.5246908098,60654.8560446329,80610.1358664198,-67887.2547015255,50979.5011257531,-62844.4105797303,
1376,141,113622.924819341,-45656.254369766,-90170.6475222883,112651.85328148,116022.608104063,-91073.0992046713,108967.771705123,-91024.3276982698,
1380,142,26762.0565607615,24100.2767205568,-37778.7173126599,42031.5390266823,34500.6551743335,-67818.4336803476,43440.257720978,-59521.3096763265,
1384,143,-14488.4901629079,15246.8848522764,23190.4042590146,-19029.6940838926,-13714.762176843,-26102.4118783965,-20311.4325179377,2892.3827877501,
1388,144,66504.0169959089,-53713.4771005484,-40317.0484682379,43819.9021005514,65549.7092663895,-60408.9645038801,34156.9971033331,-52174.7383087562,
1392,145,116134.76915774,-54702.7429583958,-89342.113058819,112057.073361525,117552.920288196,-89846.3460619862,107362.223549154,-89796.9934102289,
1396,146,45806.7486651836,14782.6391199397,-53354.3292706405,60275.5692929708,53663.3197859907,-75741.7471100983,61133.4963003989,-70656.7028947714,
1400,147,-18507.9373130724,24049.2476879654,22311.9583501766,-18060.4330373327,-16722.8152421493,-28104.8376089141,-18114.2113344921,-206.060732133476,
1404,148,50354.2557781048,-44043.0619171932,-26067.8113779797,27364.2349081319,49404.4183974765,-52323.1538919394,18278.2284353052,-39927.5693211042,
1408,149,115189.826809147,-61550.535148446,-86442.0859744651,107938.116245045,115815.809764363,-87568.0774531457,102186.543010061,-87449.9261319549,
1412,150,65164.8569303581,3249.38485019026,-66922.4863556011,77562.2743442386,72513.8869898185,-82178.8930510155,77596.3607545329,-79362.975581047,
1416,151,-18635.7892913567,30420.7912589063,17020.4734230606,-13447.3682579241,-15606.5244205623,-33134.4047945028,-12538.0992934822,-7864.95302497781,
1420,152,34057.8671166738,-32620.4487824975,-11918.3748267144,12319.141604798,33185.5455858166,-44200.440549903,4287.9139528172,-27246.1506421746,
1424,153,111012.531639639,-65706.2608845545,-81602.240395813,100615.483595787,111084.616015508,-84294.5527189437,93773.0781761501,-83814.8395794439,
1428,154,82911.1809028603,-9373.22638907747,-77427.3368629619,92074.0326731244,89215.8927578798,-86856.3979096887,91135.7287926351,-85543.7917165508,
1432,155,-14323.6236958055,33972.9081359992,7287.11572731921,-4637.53993958711,-9751.48496049463,-40521.0081363926,-3048.97910940398,-18939.1024636152,
1436,156,18490.9499872863,-20216.258790047,1329.43705671275,-722.85541568463,17734.1646235185,-36614.0349643272,-7197.41817682006,-15333.7213794853,
1440,157,103915.80807159,-67108.1622967914,-74617.3202535296,90141.1208678628,103603.241277127,-79945.2385241078,82138.8163732071,-78612.068726071,
1444,158,97211.3799704766,-22217.6786920641,-84548.0215010669,102688.853763205,102075.700709307,-89750.5688369952,100818.795063352,-89291.1063779719,
1448,159,-4816.26448825174,34178.9688681327,-5980.94683658443,8230.0911223997,1223.55684322796,-49330.7246960073,10066.9127782479,-32109.3761455269,
1452,160,4703.32112351908,-7680.97581636617,12173.9446728164,-10448.1888351666,4226.73722824302,-30561.3390280412,-15029.4023787263,-5538.91873823628,
1456,161,94191.7710532869,-65544.9483448205,-65475.702640498,76848.3596263361,93585.9940750592,-74541.1231566814,67742.5271561774,-71739.5331549088,
1460,162,107369.487866102,-34360.7556057877,-88689.4197689795,109529.962781663,110959.826226214,-91118.4061906822,106784.296844518,-91009.1285120402,
1464,163,9204.20249750644,30955.3555792994,-21423.3647493559,24031.9921412459,16388.0531654421,-58707.4603089643,25797.4223253038,-46117.6614305569,
1468,164,-6634.28832701306,4359.7301077521,19696.4466209944,-16492.9722539153,-6608.04737902253,-26918.3176062486,-19300.060784824,940.360240979223,
1472,165,81647.1897539127,-61073.168942114,-53961.0226703909,61026.8784793471,80822.6562527008,-67990.1844847422,51308.4741006463,-62962.1372177764,
1476,166,113613.760604115,-45331.3941158526,-90196.799063301,112688.040755754,116028.531316344,-91107.2750219435,109006.619036987,-91058.4588120531,
1480,167,26547.9715523686,24405.2886253939,-37617.0694967591,41788.9555441088,34300.7858754141,-67716.1073942313,43218.953099126,-59394.1506021202,
1484,168,-14444.9266129645,15203.2542470997,23161.2575842449,-19019.009950043,-13677.9712054695,-25991.0778392646,-20322.0272448095,2928.5926137677,
1488,169,66706.8590768408,-53769.6246826201,-40544.9915581932,44141.8789794301,65754.4512456001,-60507.4909934391,34451.3695778095,-52308.602906299,
1492,170,116160.943050497,-54394.2441814237,-89397.7689025127,112135.46092933,117586.246739179,-89896.7939492218,107444.120340838,-89847.5083526979,
1496,171,45574.2458193595,15094.0212719466,-53208.059454925,60075.9905667294,53417.4505969823,-75697.7141735213,60954.3023651007,-70598.5883591876,
1500,172,-18551.8361391826,24034.5402401138,22380.3099847209,-18143.3133057729,-16780.1474666771,-28057.7424833468,-18204.3559198804,-156.596321653881,
1504,173,50450.8600176406,-44102.9198888445,-26168.3048210507,27460.6379819677,49499.3239044337,-52395.3053230411,18331.2914766421,-40021.1113716497,
1508,174,115212.491478025,-61259.2472147044,-86484.643695908,107995.202600384,115841.424863508,-87604.3319826522,102232.028810028,-87487.3206004287,
1512,175,64986.7582305382,3665.90960811491,-66829.9724853006,77407.1755894632,72310.0614321305,-82159.7599577618,77465.5806977249,-79325.7375747845,
1516,176,-18701.2799026108,30480.716285791,17112.4061480053,-13556.7576952884,-15696.937226884,-33029.8433339409,-12640.8055592544,-7756.85998879194,
1520,177,34154.9407428432,-32657.9103062046,-11976.8022867205,12362.1016576411,33275.9583921383,-44201.7369510814,4299.04512155594,-27269.8434912972,
1524,178,111026.836756091,-65523.7365393325,-81627.9001984477,100649.525302592,111100.709271516,-84314.4457715089,93792.2112694039,-83834.777335498,
1528,179,82762.5418022325,-9021.18641390639,-77324.4294314896,91913.9047758466,89049.7522413435,-86817.2153016586,90991.0906542648,-85488.3146868127,
1532,180,-14383.2357982678,34034.6436541848,7427.77525517646,-4792.52693564021,-9860.67323215881,-40374.6265619548,-3195.51714605297,-18767.6869353875,
1536,181,18686.8630274371,-20316.305198229,1161.53075236449,-492.185412905862,17927.6413235237,-36621.8133713977,-7013.61978216407,-15384.2586736987,
1540,182,104039.703791106,-66970.2520335021,-74741.6853596789,90363.4536699598,103732.412008335,-80021.7708971227,82357.8187653802,-78690.0316107311,
1544,183,97135.0040596729,-21849.9924957743,-84522.3169949433,102626.537099664,102013.540507977,-89759.4871830329,100769.62122555,-89293.8556425399,
1548,184,-4917.96492552339,34299.10949458,-5848.55745417565,8055.27812901475,1103.75149294752,-49264.630587653,9915.79263398559,-31974.3045537835,
1552,185,4769.16936268441,-7739.40327637235,12147.3460969145,-10413.3201138163,4287.57867665037,-30569.2515455784,-15031.6822566607,-5532.95082246671,
1556,186,94229.3219839718,-65516.1816497066,-65513.5888473497,76926.5013249518,93625.9366424008,-74567.6323256054,67785.1295811092,-71768.5010157229,
1560,187,107328.718284216,-34271.0580552886,-88658.909637798,109483.448801452,110902.046966797,-91112.4382749126,106741.403846908,-91000.7019043805,
1564,188,9179.05678499422,30945.7890326725,-21273.6527649942,23913.9302270329,16286.3527281705,-58615.0805491305,25685.797713494,-45963.7249664932,
1568,189,-6576.10673619589,4265.11517347278,19711.8246211797,-16489.9324166694,-6558.53826505402,-26813.0632416085,-19313.4941832416,996.060788161849,
1572,190,81696.7659231145,-61081.4837910514,-53974.2549031085,61083.4507445634,80875.1157969374,-68008.5576186845,51341.9346620959,-62991.7756309242,
1576,191,113496.860980613,-45186.5548117822,-90150.7097662341,112608.937932126,115927.099100006,-91076.474318084,108935.227565196,-91027.5687012158,
1580,192,26310.3725088087,24463.5819749334,-37378.330514232,41557.4361750407,34071.0769976469,-67573.2126919285,43013.2946983927,-59181.227884439,
1584,193,-14383.0569843122,15042.0311143435,23199.5908259858,-19009.0410720159,-13624.7517019214,-25796.3270898255,-20325.4917652001,3061.49608629895,
1588,194,66786.2301214016,-53831.7401804614,-40554.8486774979,44227.2626432494,65833.8222901609,-60494.4599264216,34491.8485870181,-52328.7641797977,
1592,195,116071.111389531,-54223.2309845961,-89350.7855356676,112079.179236791,117500.863075359,-89855.2644080239,107384.396479654,-89805.8894045221,
1596,196,45377.3940059416,15247.600108099,-52966.3923938742,59819.2807816602,53170.5085242401,-75555.1323956409,60719.854917509,-70390.4489148198,
1600,197,-18473.7614958002,23900.9662152488,22417.2574183056,-18134.4396632242,-16740.2719545689,-27861.1365391179,-18210.3014839055,44.0105848324996,
1604,198,50663.4251074106,-44223.3063844808,-26338.0886719333,27763.9735059707,49682.6976159451,-52428.1623873904,18572.8914824595,-40098.6719249096,
1608,199,115209.675158224,-61107.3671111306,-86498.390018748,108058.078057537,115845.135253088,-87603.7061338074,102295.507764281,-87487.4547108954,
1612,200,64868.7186680697,3827.24449959332,-66685.513160886,77256.0777969453,72203.0859831674,-82075.4044741874,77331.9843211155,-79204.9040442591,
1616,201,-18654.0283148322,30383.2403282214,17177.8744075149,-13588.6759863706,-15658.9839647989,-32851.3870062097,-12675.2943009489,-7558.64471896228,
1620,202,34346.9869312032,-32805.498874843,-12103.4025673154,12539.4180464051,33470.8656037886,-44225.183931015,4429.08757079692,-27345.1465183671,
1624,203,111106.90070473,-65380.3500986517,-81683.5560421414,100781.579408834,111184.438906245,-84354.1201179171,93911.0331429283,-83877.536222641,
1628,204,82680.5779553149,-8757.54758805604,-77269.8688232742,91853.5550658173,88969.7776996824,-86799.0209816719,90945.3589851092,-85451.9931020729,
1632,205,-14413.2318393268,34028.027537826,7506.29693344795,-4852.92134915845,-9899.74408146669,-40246.8863423927,-3244.15454198772,-18610.8894480335,
1636,206,18760.4002666951,-20445.8782608364,1096.17425157717,-416.547109669102,18003.7043099051,-36630.128220335,-6992.76560458727,-15463.5179595373,
1640,207,104068.448134476,-66850.9607733441,-74780.0186014198,90443.830543021,103764.687927328,-80048.6153422136,82406.9255479485,-78727.3590239714,
1644,208,96953.7090603958,-21535.1681751213,-84443.8176684162,102499.914467325,101871.115192308,-89713.9566795774,100656.253177673,-89238.8032959465,
1648,209,-5065.70995637297,34342.0918991675,-5705.77451059514,7902.19103124035,986.538945023888,-49105.6426293424,9779.80462071951,-31780.5596328449,
1652,210,4940.94251882345,-7917.83725235906,11997.7458712752,-10219.4634341554,4430.60748941988,-30566.9493158995,-14891.8497433483,-5620.36849503142,
1656,211,94421.5916897764,-65511.7783560489,-65695.3979367492,77265.5996400833,93808.2151184339,-74675.5912513246,68105.6983000873,-71896.1294765627,
1660,212,107273.263606222,-33906.0764200779,-88662.4188616775,109472.563501902,110867.826446036,-91132.9124728337,106739.25807944,-91019.4550179786,
1664,213,9009.0270649227,31126.4581831048,-21147.5665745219,23732.7022829893,16137.3783513759,-58516.2858386381,25537.2256680996,-45845.05955518,
1668,214,-6474.09337450187,4142.69466909107,19634.0852539641,-16442.7031806354,-6459.98942375057,-26784.7659331281,-19298.6973284122,925.093999516249,
1672,215,81892.075466165,-61115.5254978568,-54153.9405767847,61345.6590587686,81072.0346655887,-68116.4718409147,51560.9147025245,-63139.6100687516,
1676,216,113535.149518865,-44913.2376805827,-90201.8505575479,112683.637462096,115971.556719727,-91134.745315879,109008.630693988,-91085.5491263329,
1680,217,26199.3960975881,24635.6233520059,-37292.3433533124,41443.1964091297,33957.7536532585,-67559.8687004887,42922.4572089263,-59145.6439072661,
1684,218,-14356.5701671326,14955.0828284124,23174.5792239403,-19021.8262698443,-13599.4048237091,-25846.7079218278,-20356.6500969708,3017.30668751081,
1688,219,66991.6203012014,-53964.464839037,-40769.6042382245,44484.4418149521,66045.8956415529,-60642.4508264602,34711.1639036136,-52516.2729640332,
1692,220,116150.013047458,-54122.9387072252,-89444.3052344686,112206.874752864,117592.594634604,-89945.5654556233,107512.136699216,-89896.1681003771,
1696,221,45185.9289629375,15387.4773249003,-52894.5985906838,59674.7320502677,53041.6507174552,-75552.8078142176,60596.3615293934,-70389.0631066636,
1700,222,-18491.0617460086,23821.148135799,22439.6091627609,-18192.7777162525,-16750.2408325959,-27848.0160651226,-18276.0826678375,19.7365903540361,
1704,223,50890.5858863099,-44420.4264188321,-26549.5808779694,28001.3937355749,49907.8690895878,-52562.4516680779,18794.7548979229,-40284.504328311,
1708,224,115299.886798845,-61069.0785728787,-86604.0020112994,108197.284722005,115942.633562402,-87696.3317628302,102440.19060614,-87581.7120172634,
1712,225,64599.51425785,4007.46661513646,-66578.8506363452,77045.5914194097,71964.3917041292,-82067.2013839723,77140.8545542782,-79191.448294097,
1716,226,-18767.7763423653,30370.5445373707,17295.7798595166,-13747.3733720032,-15781.2480069695,-32787.7068862566,-12837.6797244167,-7522.39018945577,
1720,227,34472.0002379418,-32953.1321469703,-12214.2001645804,12654.6412890722,33590.5815470912,-44301.1128069297,4525.065961488,-27479.3910955657,
1724,228,111151.224213985,-65416.1128897802,-81753.047615653,100863.230331329,111232.696322524,-84410.2453482444,93998.5402224708,-83939.048223382,
1728,229,82478.8534616057,-8713.805224157,-77173.4210459496,91689.4932615153,88777.1056624777,-86781.005475641,90793.9259164245,-85427.0262035163,
1732,230,-14535.3394192862,33990.3201449299,7673.66679592929,-5035.42334263603,-10049.7019350173,-40129.8973119136,-3429.58461398895,-18511.0218538072,
1736,231,18893.9072363266,-20639.2208503748,1011.0364569469,-320.568718978014,18134.7078841576,-36629.6141302126,-6898.01655984122,-15527.2874864683,
1740,232,104152.870673283,-66963.0100682986,-74855.9474773344,90557.3997565984,103851.055067903,-80106.1263806971,82543.964093204,-78789.5639287906,
1744,233,96823.0184105657,-21586.353669924,-84381.7245223194,102408.004094124,101754.103810084,-89708.7040196304,100573.775240633,-89225.1687318288,
1748,234,-5217.8806326247,34285.6760961623,-5481.36299626386,7705.60743875592,807.322657981236,-48936.0375924155,9579.9129700557,-31589.2957555408,
1752,235,5026.30383089827,-8078.03220487025,11976.5117140426,-10173.0835644106,4511.43139737027,-30438.8738201706,-14843.8605480028,-5603.0235413341,
1756,236,94454.0464227255,-65500.0436902098,-65725.282219086,77318.7297366535,93842.5250461728,-74691.8409695436,68189.6738040058,-71918.5706279958,
1760,237,107129.51953763,-33735.8678860507,-88586.892317163,109354.635698156,110728.508022846,-91094.1768996927,106635.613040401,-90977.456090147,
1764,238,8813.60576314995,31179.7894453751,-20875.9705276454,23492.6445475393,15897.2535606925,-58313.779033873,25300.967729207,-45595.9717149701,
1768,239,-6354.73505911053,4024.96803104496,19631.2242306738,-16394.870447501,-6350.55528289739,-26560.8014536859,-19259.2464994486,1046.91100679767,
1772,240,81987.852691156,-61128.0201230073,-54195.4701179826,61449.1923390856,81170.5164516588,-68120.56221015,51686.218581941,-63139.4983100293,
1776,241,113433.449081594,-44779.9765801402,-90146.5746935099,112600.041937833,115870.348020834,-91096.9261642607,108941.709571089,-91047.7299747145,
1780,242,26028.8299356496,24692.1285619889,-37024.4576960156,41207.966650482,33723.708537067,-67371.9799365973,42680.7007408977,-58897.7183577679,
1784,243,-14257.1049043065,14824.48158556,23199.8590469192,-18999.8992085337,-13519.9667239149,-25537.1586128662,-20343.7531404201,3202.42383508966,
1788,244,67112.8114596381,-54012.230516938,-40816.3864393695,44580.7107783211,66167.1538552229,-60615.8075470695,34832.980910895,-52505.0523883167,
1792,245,116054.034656767,-53992.9186097287,-89394.8855274779,112137.852565986,117507.099212062,-89899.5432137898,107461.666460236,-89850.212913777,
1796,246,44950.9450734788,15521.7219020989,-52650.5175412318,59455.9978790281,52802.8223279503,-75392.4563994952,60370.8547795838,-70161.9917347421,
1800,247,-18459.7693037712,23728.8130794541,22507.7596316051,-18192.6883092747,-16730.2360213084,-27547.0945295208,-18290.2536738221,265.963407273699,
1804,248,50953.3272329959,-44463.5652856309,-26587.2435673766,28095.2934140317,49981.2498666346,-52518.7540076678,18904.4572597095,-40294.026171449,
1808,249,115246.510833086,-60903.0945185536,-86573.2460109289,108168.495675146,115897.57244558,-87662.1112420692,102431.674591503,-87547.9385313915,
1812,250,64419.2474388179,4200.65274246368,-66396.7286225234,76852.0476641712,71753.5924021712,-81939.6846818548,76952.8540316646,-79013.4837047438,
1816,251,-18720.7482720313,30277.0695420587,17369.6300231969,-13759.3315552868,-15764.1712742056,-32474.2460220153,-12859.9197101497,-7220.35106663121,
1820,252,34592.140864389,-33041.9132759468,-12286.4857061488,12750.507921041,33709.7834002713,-44228.7378583834,4641.87617801144,-27457.1064063437,
1824,253,111131.442920142,-65280.5495596587,-81737.7366707011,100862.716241207,111217.743005484,-84383.6244205981,94027.2845658403,-83911.4661707242,
1828,254,82293.1104651821,-8478.70957597608,-77004.1959886785,91516.3790007089,88596.9282504235,-86673.9853231889,90626.6007574321,-85284.7797018027,
1832,255,-14530.8020151618,33935.9830541591,7829.43610303832,-5096.06362534328,-10067.9856619818,-39798.0856654746,-3507.0781120155,-18165.799160695,
1836,0,19102.270198139,-20763.5412530352,887.788938020341,-190.74978718159,18346.6471250829,-36508.4900270093,-6767.23650303322,-15503.2146576899,
1840,1,104203.989112853,-66827.0220550325,-74894.0572016307,90631.2275685343,103910.153080243,-80111.0437644772,82651.6100945008,-78793.1625596479,
1844,2,96698.1168625494,-21198.2156274576,-84283.8238816051,102294.390177058,101625.223651555,-89643.4816293099,100460.675413689,-89148.5916553249,
1848,3,-5262.56176979086,34366.5447076016,-5344.57032019738,7623.46477788267,732.868997200608,-48686.5921242943,9473.36220423725,-31352.1660986145,
1852,4,5120.53878552184,-8216.99300014889,11902.1474602398,-10095.2994937062,4606.91804968334,-30290.9499753654,-14769.0492593109,-5613.99824786165,
1856,5,94539.4524382892,-65530.0173795244,-65797.6571676322,77442.9383805917,93934.6142333286,-74729.3471967396,68350.8522332731,-71968.5267768534,
1860,6,107071.203836346,-33635.1062220462,-88556.158668537,109324.572601863,110694.645129996,-91078.240105896,106613.350702924,-90958.6806248046,
1864,7,8729.27263132007,31179.4318174639,-20758.9367936774,23434.4853084666,15856.729847995,-58164.4693809115,25224.7929841033,-45412.9779831145,
1868,8,-6277.42037503962,3855.85473249611,19571.388610767,-16349.5411097456,-6271.07247961432,-26438.5597632599,-19223.9977984426,1043.71470734056,
1872,9,82107.3674687585,-61210.431004814,-54317.6894566643,61602.5029543046,81295.954441542,-68183.1694463693,51863.7808398939,-63233.1297675526,
1876,10,113413.891305195,-44625.1683980427,-90153.8837139468,112609.228504804,115867.375238821,-91109.4431411556,108959.993298053,-91060.2469516095,
1880,11,25887.0081170807,24844.5898109185,-36924.5453983003,41126.0251553089,33618.3200619602,-67280.1589703749,42590.2208793427,-58786.1608011914,
1884,12,-14204.2430286697,14736.2368984505,23176.2779565189,-18979.9614524795,-13464.6014528992,-25346.6993983626,-20333.4936897151,3247.23908272255,
1888,13,67262.9481271444,-54079.5539712374,-40953.9614264919,44737.1282860194,66321.8279268537,-60661.5392162251,35017.2039886956,-52599.5555638737,
1892,14,116067.24453774,-53806.7062266715,-89422.7805045581,112170.866092547,117530.345026296,-89925.7841617804,107513.544859117,-89876.476213512,
1896,15,44837.3311564125,15682.8556278772,-52555.5226272968,59356.8231888799,52726.1111409797,-75331.4584888766,60249.0824757913,-70098.0657456,
1900,16,-18417.099823606,23659.1203402424,22513.1464020188,-18196.6892715322,-16683.9679102859,-27332.182506583,-18312.2477903661,318.422951510304,
1904,17,51163.4783343647,-44580.6437230878,-26749.4501768887,28280.0082302103,50190.2386772917,-52552.2592726063,19113.8484017668,-40405.6731350032,
1908,18,115334.911982407,-60853.4065906294,-86650.1360118551,108278.846237522,115991.002737403,-87728.473571357,102564.220436122,-87615.2619856908,
1912,19,64265.2439195208,4286.63990338324,-66334.8366421266,76771.8272533211,71632.8482786236,-81935.571960875,76876.4781208608,-79006.420553496,
1916,20,-18781.3662029941,30251.2532772128,17441.7367508098,-13832.5782218669,-15821.0788155888,-32324.2434649758,-12943.2246617347,-7188.23160984893,
1920,21,34779.8508143247,-33202.1529319469,-12454.5484727083,12914.4803183651,33897.7615711405,-44271.2285245929,4805.9826858023,-27619.8494577228,
1924,22,111266.447456652,-65327.4211677815,-81860.559506483,101024.229946641,111357.687277518,-84483.5814218022,94214.6815913536,-84017.8828260759,
1928,23,82134.3683760605,-8419.09747351378,-76983.0959419126,91453.0341569226,88500.6592870545,-86699.7345328015,90569.4696986043,-85308.7631236032,
1932,24,-14688.4041653161,33966.2920196405,7937.39502875746,-5236.03024912241,-10197.9163525005,-39665.8974487659,-3656.83479986606,-18130.3492939889,
1936,25,19212.0619669034,-20866.4933879964,781.618151857633,-85.3613120748177,18457.8023502591,-36500.3316402831,-6663.14442910486,-15615.8674497446,
1940,26,104353.298765814,-66915.7808322645,-75030.4698980415,90813.7966172453,104063.35193674,-80221.9754722089,82864.3092947375,-78912.5879302726,
1944,27,96611.0344661515,-21204.027081016,-84286.7743118732,102272.57487447,101581.727156845,-89686.3522751751,100442.77166638,-89187.9530773107,
1948,28,-5446.9860132916,34379.0616844966,-5195.9759230585,7458.86653171379,580.251286059771,-48581.9412567546,9288.87090550314,-31270.4928243748,
1952,29,5241.57348174733,-8287.51275390539,11869.1115819349,-10123.6415056755,4725.22583308528,-30186.2767560812,-14802.0404341269,-5623.16246308833,
1956,30,94641.5552069611,-65555.9006996036,-65868.8921772113,77478.5894129979,94040.181522391,-74787.1711596455,68398.4838007073,-72032.229248551,
1960,31,106979.718146291,-33585.4406458665,-88540.6689096295,109268.06739188,110604.701710308,-91095.9426875046,106565.249748856,-90973.969218012,
1964,32,8491.07009065987,31216.4910097708,-20540.2026224378,23190.225445059,15565.8889491426,-58037.8243968277,24974.3416874816,-45255.9346265715,
1968,33,-6176.6587110351,3761.84329531709,19536.38577895,-16313.1748215169,-6180.79378375933,-26306.5727122513,-19199.6120452418,1045.03346026343,
1972,34,82301.157093186,-61287.2315987625,-54479.5831417541,61824.7687011681,81492.1580543707,-68277.7843806487,52116.3555522389,-63355.2149957675,
1976,35,113363.868101104,-44544.4562488146,-90171.0945571774,112603.461754735,115841.849546653,-91142.8142956274,108970.632728414,-91093.6404578257,
1980,36,25578.9787267421,24924.8549252576,-36685.4487878619,40826.5341313522,33339.3032359246,-67148.9765821667,42289.6346199077,-58606.1398513484,
1984,37,-14153.1692925893,14648.0592665743,23197.3109480513,-18997.9769585105,-13421.7308070339,-25194.8416465332,-20371.4693035447,3337.85305474437,
1988,38,67483.1798652625,-54185.3671294888,-41123.4100012076,44968.7594138097,66545.3230196623,-60755.3941911929,35248.8127647415,-52718.8691757761,
1992,39,116079.046258813,-53768.685909353,-89471.0826243261,112221.872773394,117552.94263994,-89975.4720897045,107579.594263982,-89926.2982519029,
1996,40,44571.9712462391,15736.3210006143,-52325.4114181294,59116.3184185408,52427.9612216903,-75244.2866855009,60013.0033508543,-69947.7726158825,
2000,41,-18429.1027103785,23581.582138727,22627.9226097968,-18278.8319324055,-16720.200088048,-27108.5085998188,-18403.2193902992,520.505073130736,
2004,42,51278.6792252873,-44682.1206429149,-26790.5103314531,28293.5533873502,50312.9497543513,-52552.6839557509,19135.5742973774,-40453.6623303488,
2008,43,115299.663281401,-60887.7835736017,-86651.3206543113,108257.857949478,115967.287536536,-87730.3734696357,102559.683031998,-87617.5642153697,
2012,44,63968.9938985102,4277.16276373419,-66111.6991772293,76519.3195962095,71355.0607985331,-81831.6587009023,76628.1278882179,-78846.0020835402,
2016,45,-18806.8918951621,30123.5130576507,17594.9356073064,-13913.8268129619,-15865.3129178659,-31963.2404402781,-13041.3488198935,-6882.75031837825,
2020,46,34953.1885925756,-33370.1933467619,-12551.1527122441,13078.7656401116,34071.4569773027,-44205.6485063611,4988.88701068008,-27665.1117402448,
2024,47,111283.077154526,-65331.2433160834,-81887.2251376182,101078.678796134,111381.737754552,-84498.8029597763,94301.1157871623,-84034.0207855726,
2028,48,81880.7207799817,-8412.81663332184,-76814.2955677862,91236.5351601285,88241.9154932398,-86614.9543660825,90362.4925449482,-85192.5787559246,
2032,49,-14765.2047592646,33845.8161170263,8130.84937701814,-5378.00852990252,-10319.8451185042,-39375.2577156136,-3811.17359532995,-17824.8456507737,
2036,50,19310.8790291404,-21031.1363376542,762.708576048443,-76.5994282483373,18562.3414590766,-36385.3319150605,-6664.41847853881,-15623.8023190263,
2040,51,104352.315289058,-66910.304654873,-75018.1764385911,90804.1183118961,104067.621119931,-80212.163056393,82861.3588644694,-78908.1846366149,
2044,52,96446.1456473047,-21209.1456304962,-84163.4820894578,102123.399331975,101394.576000521,-89619.2970418092,100301.508641423,-89105.5868989929,
2048,53,-5547.68062206276,34287.8889188634,-4970.06684184871,7303.16427983812,407.092321764508,-48317.4754163594,9128.81006345869,-30977.0367714211,
2052,54,5360.03772736045,-8508.54915482392,11791.8416013529,-10018.0965683575,4844.98647987681,-30081.0670949301,-14709.6159708042,-5673.90092300188,
2056,55,94747.4801239348,-65595.3068250784,-65961.4731027452,77661.3819791534,94152.3872795567,-74846.4256341965,68613.3511201562,-72112.0696797454,
2060,56,106838.656287033,-33418.6742804854,-88477.1676036319,109175.486466347,110495.066403755,-91061.6998149991,106486.593960118,-90935.3230518488,
2064,57,8278.59440786772,31267.0953592176,-20314.4276516947,22978.1073901781,15381.8893887865,-57803.1757835359,24760.8825279334,-44970.1452219659,
2068,58,-6058.59679682217,3569.32772032353,19493.6939470403,-16256.9154807228,-6069.72796556091,-26084.3516688766,-19153.2992307304,1110.83699593985,
2072,59,82423.5328940788,-61348.5871372923,-54578.0202243352,61985.0530606572,81615.249111086,-68320.2526951137,52310.9945429557,-63415.4082435856,
2076,60,113263.262899311,-44461.7994978189,-90126.1004955888,112531.399730611,115746.899336207,-91113.2652894575,108915.088643442,-91063.9573411891,
2080,61,25385.7702476704,24905.4983145593,-36443.6029128555,40617.5453206951,33112.56714017,-66961.4901496756,42068.2852945668,-58380.297825372,
2084,62,-14079.9449777538,14484.668014606,23218.0757186503,-19007.2976359484,-13360.6881929264,-24875.5022735002,-20393.4634200887,3434.45729428021,
2088,63,67581.2816716768,-54259.1725896803,-41167.8005656958,45003.874004349,66647.6269540342,-60753.2707754696,35289.8952710504,-52790.6629789666,
2092,64,116011.342824858,-53692.9805508829,-89440.3713274445,112175.269386204,117491.900025833,-89948.0241475134,107546.737199633,-89898.962068434,
2096,65,44385.4906422485,15756.4375706241,-52139.534311239,58960.3032422427,52242.1511700334,-75110.3997362137,59851.6684593759,-69798.2617972209,
2100,66,-18386.5226371911,23457.5746604889,22653.6271159204,-18260.9728885857,-16685.0407940198,-26753.7640635686,-18403.0405763436,628.329888383137,
2104,67,51446.5855296356,-44792.9852954132,-26967.3573335835,28531.0853756768,50483.2923988452,-52563.7927727452,19373.4415618708,-40596.579384396,
2108,68,115326.641836958,-60668.0212221171,-86693.0513612093,108329.674104413,116000.703394497,-87757.5084874044,102651.124018565,-87646.8002971173,
2112,69,63810.8553064889,4559.24177876017,-65984.7412687232,76391.802894092,71194.9776047442,-81752.4441185527,76499.0242122441,-78739.5407246996,
2116,70,-18784.160171051,30087.5267490776,17654.4806545354,-13934.8374527499,-15856.3051648504,-31703.5802249408,-13078.6762331338,-6711.67006631733,
2120,71,35149.1910397042,-33453.9453332359,-12713.3146182674,13202.9742840498,34270.7227791217,-44189.7340643089,5098.85759340019,-27761.1124826804,
2124,72,111338.93416392,-65114.4090431224,-81940.5340481441,101154.026526693,111443.428569249,-84528.687242113,94390.6792271947,-84068.3754168004,
2128,73,81773.2088891517,-8044.146960276,-76738.9254854829,91147.1058305628,88134.1353814763,-86576.9564005085,90274.6501892388,-85139.4263076098,
2132,74,-14775.7771343919,33880.1260447652,8205.70536919896,-5433.30674568495,-10347.2930606953,-39125.3652126032,-3882.54271537575,-17673.6360995336,
2136,75,19613.7228147653,-21168.1748829096,487.044511681141,169.515629949049,18864.8946720236,-36351.1784495328,-6447.71831604461,-15756.6834398131,
2140,76,104520.601573062,-66854.3135350124,-75186.507426084,91034.0954105968,104244.266956361,-80304.3416505267,83122.7625158742,-79011.0250128537,
2144,77,96331.4141430156,-20972.2618427589,-84145.6901008713,102060.2109504,101325.24088922,-89618.9170621535,100248.713821019,-89100.5577564905,
2148,78,-5683.06513822855,34346.0481579361,-4891.85808799959,7164.82933340422,303.939021103265,-48165.5282575522,8983.65783496592,-30862.2829153875,
2152,79,5573.69805260874,-8607.00858914955,11538.3504674852,-9773.94846367222,5061.15020050409,-30031.6697396838,-14491.1276687536,-5745.27004304767,
2156,80,94973.5456673557,-65607.2873601064,-66232.9797426438,78027.9058847315,94386.7900236595,-74975.1716822591,69040.4706049527,-72249.6446668678,
2160,81,106886.80194459,-33287.2460230882,-88517.6466128405,109211.830402831,110506.666959127,-91117.8697488153,106534.538451974,-90990.2859914644,
2164,82,8283.95882653699,31290.9446705514,-20245.8301479614,22917.3329970042,15262.3522594395,-57764.149637717,24691.4803613997,-44922.4018958094,
2168,83,-5885.01314938225,3485.1734024493,19272.031697277,-16080.3590512704,-5925.76037952428,-26068.1243024021,-19030.8563746043,1033.61171884676,
2172,84,82733.8421623519,-61406.8134315984,-54994.992017149,62485.7097847116,81914.9413007428,-68493.5234181313,52809.729016987,-63617.244496017,
2176,85,113273.365887805,-44111.3241447597,-90189.4900428641,112578.673670134,115769.876929507,-91184.6567612477,108985.451934988,-91135.3488129793,
2180,86,25213.7288705979,25158.0730269042,-36318.7460683282,40429.0754114479,32915.5812162854,-66896.0889453994,41877.1108242405,-58282.5536468689,
2184,87,-14000.7750988931,14407.0627578572,23149.0088282834,-18977.5921675673,-13291.4424886039,-24780.6191182875,-20383.8521699729,3463.84983823894,
2188,88,67870.9155763287,-54376.8098207486,-41496.8629475669,45359.1549824661,66944.4581204007,-60888.4764776798,35664.935191266,-52957.5634548144,
2192,89,116071.245499998,-53454.8227137116,-89533.2875291452,112279.160294433,117567.963012214,-90034.1901223886,107674.142143028,-89985.1503950537,
2196,90,44115.2133482949,16052.3746672123,-52007.2119840636,58719.6643614369,51989.3752919883,-75053.1122151747,59611.8342413705,-69709.1677438221,
2200,91,-18396.0444803291,23431.7360438986,22691.5803780056,-18347.4741396277,-16710.2088582765,-26619.1842102032,-18498.3931181899,739.351003092647,
2204,92,51614.4694822394,-44870.0541102951,-27088.2355675978,28576.3029547099,50646.9071682581,-52605.7022935989,19433.0313125886,-40665.5568677851,
2208,93,115372.127636925,-60544.1255026013,-86747.9919490805,108379.987881182,116052.626496867,-87806.0564763613,102715.094711196,-87695.7506174744,
2212,94,63559.9346232336,4775.4278511319,-65860.7114387407,76182.6799729681,70922.5768950673,-81701.9738795726,76304.5863872273,-78668.1939563982,
2216,95,-18843.0793694352,30058.4471295413,17737.9867718204,-14041.7234947352,-15954.5857852204,-31497.7653619963,-13193.0501095116,-6576.12908794035,
2220,96,35340.4325652638,-33597.3094221722,-12902.6338938038,13390.5277717743,34424.5921879521,-44219.6183466456,5283.57240957885,-27871.9771351787,
2224,97,111431.582144687,-65010.4287279163,-82038.9934824697,101285.164211412,111534.958962793,-84598.1117603912,94539.4971417781,-84141.1750484914,
2228,98,81543.4106044067,-7713.318790593,-76632.5758853645,90959.9099707496,87921.6596986842,-86537.8184959672,90104.262841256,-85074.7403591562,
2232,99,-14892.6767578932,33919.0180801175,8365.18506588758,-5615.89814614035,-10491.1935914986,-38921.4055444486,-4066.29640654283,-17428.1468901809,
2236,100,19683.6167196771,-21261.8063404329,461.47411602427,185.251258045585,18929.1559373326,-36298.1824634293,-6427.73585650156,-15744.4793873405,
2240,101,104557.526654902,-66806.033766989,-75212.7930775634,91070.9534372036,104278.9792155,-80329.688528739,83167.3318943181,-79036.1036701326,
2244,102,96167.2629317359,-20777.1534654085,-84043.7437944107,101934.303573883,101163.056631453,-89581.0755587906,100130.070761451,-89047.3159011979,
2248,103,-5812.5711456026,34347.3892626034,-4649.16284670387,6998.84527907911,138.267891200529,-47883.8962774153,8810.2306497372,-30568.4245310336,
2252,104,5685.81440279656,-8779.40759413333,11562.3785927747,-9821.04358923955,5159.85550401872,-29777.530405227,-14535.6523437086,-5686.41789989685,
2256,105,95015.4775399539,-65604.7839647274,-66201.0614515616,77987.7845034342,94422.7763322325,-74966.0968740102,68991.9002642513,-72249.5999633789,
2260,106,106618.625714615,-32991.9124236002,-88404.5020824077,109042.381828115,110301.969683405,-91043.483143268,106373.896464574,-90910.6020224812,
2264,107,7858.96275746378,31440.5001927018,-19914.8902195561,22567.4164375563,14931.3676275453,-57402.6325228968,24347.5540694659,-44549.8430192283,
2268,108,-5847.79749486417,3282.8230598954,19349.6816575148,-16131.4774908397,-5894.22206809784,-25647.308009542,-19065.6803924656,1127.55610079242,
2272,109,82729.3718134608,-61436.1836238126,-54879.8805332041,62398.1580016801,81906.9393762278,-68439.2757343383,52734.2471759614,-63606.001568556,
2276,110,113165.384610341,-44000.7947684282,-90122.8147891539,112509.919704189,115679.732344119,-91135.0135368125,108917.279114399,-91085.5714780774,
2280,111,24916.0036344533,25247.5247082144,-36056.8730302898,40156.3394256043,32649.8413264562,-66662.1779396746,41623.8432078175,-57982.2803118563,
2284,112,-13905.0649291354,14227.0418080141,23138.9281915341,-18968.3161936183,-13204.605961395,-24456.1835475187,-20383.6510042728,3605.49284285222,
2288,113,68034.3291800415,-54459.4889234887,-41584.8170619985,45490.1809084631,67102.2614362552,-60896.9477888284,35788.7862072928,-53024.1716532912,
2292,114,116018.920066228,-53295.9912176122,-89508.387685822,112270.599576306,117528.132203595,-90013.2018343451,107664.888520824,-89964.1621070101,
2296,115,43868.7853656751,16216.2800093031,-51756.4254112751,58451.2646140176,51753.8102571738,-74885.1165038486,59363.0816773274,-69506.8397530126,
2300,116,-18333.6160580654,23265.1708442176,22710.9816921928,-18348.1446919614,-16658.6433838181,-26315.200485611,-18516.1851067764,876.948341959517,
2304,117,51880.7905174244,-45077.5900575626,-27366.2689168774,28967.1232065109,50916.9385930227,-52675.9985299109,19797.0071192988,-40847.7235850958,
2308,118,115417.166402002,-60439.8322629729,-86812.0073452005,108509.292722856,116110.33870105,-87848.1671629151,102852.826160529,-87739.7612023069,
2312,119,63305.9741027324,4968.05518484774,-65686.7925151339,75956.7261882694,70719.6901106465,-81610.287023817,76095.0834864478,-78549.036806707,
2316,120,-18868.5827098587,29966.2685354076,17834.0322177449,-14132.6503911794,-15979.7091459881,-31223.7329749743,-13292.9400554824,-6413.25192609452,
2320,121,35514.0162127037,-33802.5654915053,-13090.857933862,13610.8712686147,34602.6014807941,-44233.0740968077,5462.40871696576,-28045.8960587854,
2324,122,111501.788974022,-65009.1323267379,-82118.1633613304,101427.097788703,111612.318350353,-84651.6441883617,94679.7766899796,-84202.8211596991,
2328,123,81276.8437000327,-7611.1489666878,-76515.4750961632,90775.44102376,87733.7038795595,-86477.2899719822,89940.4022026541,-84991.3683523379,
2332,124,-14990.9573782632,33834.99787271,8491.98651218254,-5764.06786013459,-10564.8649412233,-38691.8978323815,-4211.71685596905,-17213.2795707321,
2336,125,20024.5031743649,-21546.9922479382,112.295164143463,535.368983193515,19264.9014907958,-36341.567199417,-6141.2982513068,-15932.7928343764,
2340,126,104774.606797052,-66816.8967147942,-75436.3775773498,91414.9244326263,104503.390729832,-80456.3558645673,83518.5448549443,-79178.2384131239,
2344,127,96035.7899708498,-20476.0084123621,-83998.9061950333,101832.603136611,101044.167702695,-89583.2436780028,100049.380963967,-89040.9456540281,
2348,128,-5969.10041202312,34427.0285280977,-4466.14676310381,6743.58835739951,-57.0193001054883,-47731.6361941858,8580.41001324773,-30394.3491452156,
2352,129,5886.39895753848,-9009.85407946754,11368.2760439248,-9694.84564004488,5360.37300352728,-29840.5399728465,-14470.0499737322,-5857.31933800213,
2356,130,95223.482873855,-65662.0267822774,-66417.0463582333,78280.2347278875,94639.2082737933,-75093.0100790274,69254.4885581122,-72409.5713984455,
2360,131,106551.257556827,-32828.9682065211,-88416.7955418582,109031.31771461,110268.889101611,-91078.3518646183,106375.215217497,-90943.8167147418,
2364,132,7648.07404852796,31503.4203533435,-19766.8993195175,22360.1934147112,14758.3874772057,-57325.6084115038,24170.2376807019,-44434.6197765612,
2368,133,-5701.05829251507,3135.41330521265,19243.9355544967,-16080.1802373147,-5753.69665070732,-25707.30009166,-19051.263517292,1048.14035274271,
2372,134,82976.604458881,-61544.8801570988,-55109.03061736,62689.2894732105,82155.7142920154,-68574.168512126,52991.9404377866,-63770.0186693691,
2376,135,113113.215638782,-43913.4665028413,-90146.7088039766,112511.93136119,115646.517651858,-91171.9386186527,108928.075006971,-91122.1836354952,
2380,136,24629.789546703,25322.8500870288,-35865.5868012413,39856.2672562918,32372.0538463657,-66553.0567232438,41357.2986551879,-57840.9055281765,
2384,137,-13853.3206407214,14088.0363092466,23111.7708220209,-18972.6524320427,-13163.7693242752,-24413.0670324644,-20418.0056355006,3583.96811294176,
2388,138,68250.7164181133,-54601.4448525244,-41810.6367362305,45788.6884556637,67316.1229272035,-61021.8269851002,36019.3444513493,-53213.1556526608,
2392,139,116044.557517118,-53235.4626936272,-89568.1786022399,112349.188309811,117559.625811532,-90072.1433844737,107745.198338651,-90023.1707123722,
2396,140,43643.7480024991,16295.6510538639,-51569.4083654175,58187.8269538673,51479.0402625847,-74807.7794680333,59128.0530843798,-69387.1685131989,
2400,141,-18298.0097291481,23135.19545021,22754.634649114,-18411.8918671479,-16651.0437907033,-26210.437859349,-18596.5843315821,976.681825719097,
2404,142,52159.561474271,-45263.8694958531,-27590.1216375973,29227.1186980151,51193.9437620573,-52791.4229382781,19994.9988716839,-41018.3344505232,
2408,143,115440.345161002,-60325.8830697397,-86875.8886308537,108597.045671588,116145.319181123,-87897.7880356059,102938.232176093,-87790.9243453651,
2412,144,62927.6708278264,5214.61727793423,-65464.3703060592,75625.4286319528,70358.4412167598,-81507.2231301335,75784.885976897,-78421.0283662115,
2416,145,-18917.1530505601,29872.4806156731,17964.6111088528,-14268.3478317675,-16050.1618445113,-31036.6712256278,-13441.0427142433,-6257.95200561905,
2420,146,35790.7755125493,-34010.0343835395,-13316.1858697159,13852.6947918766,34876.0527224604,-44331.0864962443,5634.76301846063,-28235.5506104887,
2424,147,111593.475829777,-64950.6154597539,-82214.7005456329,101583.425889424,111711.023653868,-84717.1571513602,94825.2865463837,-84276.2242884903,
2428,148,81049.1464792665,-7377.28266445192,-76379.7329520861,90569.0450154597,87465.3264838846,-86432.899407494,89758.9283894215,-84930.3704417194,
2432,149,-15093.6636440353,33812.8025904659,8680.5011249186,-5963.08779276464,-10740.3931904308,-38473.2977716086,-4403.40541641777,-17035.0691121899,
2436,150,20235.1236623673,-21747.5097474467,-53.2642070369967,724.487093029868,19472.1692171299,-36381.1744905918,-6006.20430781893,-16100.9673596582,
2440,151,104890.724109498,-66740.4090452682,-75548.4045205599,91605.6518680634,104623.196080112,-80529.4460689361,83699.1469501432,-79268.3606467677,
2444,152,95786.2103922618,-20142.0957019443,-83898.1892345177,101668.317814865,100841.996174097,-89545.3127676622,99902.306485451,-88991.3247813374,
2448,153,-6217.45064466603,34499.2023109439,-4216.85775719377,6475.90386580275,-288.62807615138,-47509.7727787224,8325.73423692396,-30147.0717963066,
2452,154,6102.60738165467,-9170.09373546764,11232.1092167031,-9552.39797263121,5568.80302057302,-29811.5721120324,-14391.3271297606,-5941.11602796507,
2456,155,95379.5204018975,-65598.3243105798,-66553.0120197549,78509.2507015766,94798.1291768705,-75169.2742311089,69451.7650546748,-72505.862713559,
2460,156,106398.103403819,-32361.9955613608,-88337.8268286976,108910.305370129,110105.140221732,-91050.7027567271,106262.629480675,-90911.6749062151,
2464,157,7395.72285362755,31719.0923355928,-19413.3617774679,22007.8852186066,14407.7556619353,-57075.1794666266,23818.5553334421,-44146.1705143655,
2468,158,-5506.82163319846,2926.64801200009,19143.5762218924,-15978.9044831877,-5577.49784916614,-25563.7124852791,-18994.7359555645,1005.06854117734,
2472,159,83231.4366974159,-61569.9811661221,-55326.4236839323,63031.7852534992,82411.0829724172,-68683.4685425125,53303.3896450269,-63926.6373427674,
2476,160,113054.363495632,-43435.8320755758,-90149.4133650557,112515.977026937,115606.977415917,-91195.4973573086,108943.721228089,-91145.5635601954,
2480,161,24282.1305134452,25677.795788979,-35565.8499080956,39509.8599207234,32016.2587781261,-66371.1135233776,41044.0836601357,-57623.6465720709,
2484,162,-13744.3782382462,13887.6976236937,23080.2548623389,-18937.3143240588,-13072.5071516642,-24242.5902775038,-20417.089213978,3620.13323547044,
2488,163,68546.9440873795,-54751.8944444531,-42084.1103296411,46174.6136754291,67610.1824772575,-61144.3815999486,36351.4466704663,-53395.9035153274,
2492,164,116043.86461304,-52906.2662012894,-89615.653707463,112418.881049023,117575.71906754,-90118.8138268964,107826.581040213,-90069.9305617727,
2496,165,43255.4534978215,16687.0748027652,-51305.5683738671,57859.926862708,51117.4784442757,-74678.6534403149,58838.4191797279,-69216.2223716047,
2500,166,-18278.8989876388,23028.8458500917,22811.3186730526,-18454.9860304577,-16642.0136859433,-25990.116714253,-18654.900032866,1097.22478356657,
2504,167,52430.6210792805,-45426.2996228098,-27828.793564891,29542.3677018127,51470.1219165471,-52876.4713259305,20256.6483922778,-41204.4127231136,
2508,168,115504.807592011,-60125.4326254645,-86954.9691027366,108725.702312672,116221.650388438,-87960.8423067143,103072.320291081,-87856.012625219,
2512,169,62641.5908505429,5529.86628173188,-65253.3251349122,75359.2417072346,70086.4204867387,-81425.9745390385,75544.4706135357,-78298.1831786851,
2516,170,-18950.7924259654,29794.3836205463,18107.3493489443,-14386.1191733026,-16103.8507346929,-30848.7377582476,-13566.6371663376,-6052.15949441904,
2520,171,36029.1345154207,-34228.2097611677,-13526.1805088735,14108.1752310008,35118.1891701447,-44416.4031048302,5849.51857918722,-28400.4394293355,
2524,172,111697.679662428,-64852.6030603174,-82317.0268317493,101753.097981584,111822.380044744,-84791.3872946963,95000.2336502354,-84356.914085974,
2528,173,80808.4405432273,-7087.93933247797,-76229.2386566685,90379.815146901,87240.6914521088,-86384.0608458592,89588.2281170163,-84855.536801283,
2532,174,-15183.0706218565,33792.6189652227,8899.57057232506,-6132.58107096923,-10859.7068023332,-38244.9076467642,-4575.91618012383,-16792.1280017052,
2536,175,20495.5661887605,-21957.4149796265,-243.544607585026,929.810217596318,19728.7448917323,-36412.601043296,-5827.9267940434,-16241.0457421596,
2540,176,105029.774311754,-66722.482946215,-75678.1340453785,91806.906975139,104767.498942315,-80616.1261339338,83921.6138627069,-79367.8259095938,
2544,177,95585.4023200753,-19890.7279837999,-83801.4061810263,101524.283173595,100668.390174912,-89519.9211859609,99775.4826874116,-88951.4716209735,
2548,178,-6399.61736197679,34519.7882675872,-3949.55324525276,6242.39519147816,-489.704369271322,-47268.7092147719,8092.60554225511,-29877.5991651534,
2552,179,6265.70806094504,-9400.38375859067,11126.0725410071,-9423.51781410191,5733.98241209774,-29733.7209860946,-14289.2690645777,-6040.80480823574,
2556,180,95519.8670053324,-65655.2765554519,-66684.7755533189,78725.6155879039,94946.4330013315,-75252.1544995492,69686.3242609888,-72618.6943195694,
2560,181,106250.76070437,-32213.6917368998,-88281.2098599923,108815.310456194,109989.313481964,-91035.3471082863,106179.816267468,-90892.0277228389,
2564,182,7170.01493811786,31740.5723620143,-19140.2234602241,21753.2764975162,14194.9447029763,-56849.8515307726,23559.8115396275,-43882.3305228151,
2568,183,-5390.92783819769,2714.8428815416,19106.986416219,-15928.2330785076,-5464.01804256654,-25403.9198641682,-18966.7068680175,969.663377960131,
2572,184,83350.929123274,-61649.6874868497,-55428.9064322599,63196.2940926902,82537.9291222011,-68743.3712176527,53474.4475453433,-64039.625410989,
2576,185,112923.225810912,-43338.0655453283,-90093.1540242617,112420.110394968,115483.215806868,-91160.8074499139,108862.584395717,-91110.6277836118,
2580,186,24069.4760166974,25664.4070940503,-35259.1169189354,39234.8217052009,31748.7307487405,-66146.2102706683,40764.4409852554,-57330.034056906,
2584,187,-13586.4855154139,13683.1121066942,23057.9701731169,-18909.0393673228,-12946.1750920028,-23983.1982830999,-20403.5664085825,3710.74720749226,
2588,188,68813.24277082,-54869.9340069215,-42261.5831806163,46389.0339599888,67862.04193378,-61211.7274059924,36592.2867169722,-53538.7088106524,
2592,189,115993.081449638,-52779.3306445278,-89609.4622742489,112411.996711731,117539.777462456,-90115.3046030169,107836.974601385,-90066.264875682,
2596,190,42994.7874539837,16796.0395569849,-51051.3619841769,57585.2015716078,50841.0991240858,-74508.2213888432,58558.4859321697,-68998.3152149099,
2600,191,-18207.4851641041,22857.1173974416,22843.2146123904,-18467.368896886,-16591.6105021966,-25702.58387358,-18688.3605943156,1244.63453824932,
2604,192,52651.5010179879,-45597.536337082,-28007.9875001892,29758.2632015065,51696.3439221792,-52925.3098875654,20475.3378600285,-41377.0799490309,
2608,193,115494.078754673,-60066.8263515027,-86975.1303762353,108764.661403258,116224.131432072,-87969.0677486739,103133.049980766,-87866.5179451129,
2612,194,62315.9929890624,5638.58516676249,-65029.8076903591,75077.2968026754,69788.1811604716,-81287.170205971,75269.4547497576,-78126.5217812683,
2616,195,-18939.7730159489,29642.1682408057,18197.8739139883,-14450.2239764004,-16107.3599585724,-30525.0174433014,-13650.456208045,-5842.34366921707,
2620,196,36309.0230594901,-34445.9157521624,-13762.9301861441,14361.8004753352,35403.2633189277,-44432.6975265381,6094.44899492848,-28573.4642831641,
2624,197,111755.660087545,-64759.5750998944,-82385.8031494383,101868.142410295,111891.424583366,-84826.1219055798,95144.6259194167,-84399.0024207833,
2628,198,80482.753274769,-6881.69978638885,-76055.4761952729,90121.6301466978,86944.3073206314,-86279.4099783194,89349.8467624005,-84721.6051485068,
2632,199,-15266.1520559969,33691.9690599405,9048.34378341958,-6286.20461061056,-10971.9125594989,-37877.0873400077,-4737.04990590214,-16501.8235447196,
2636,200,20752.4994912743,-22214.6388548182,-453.807467676099,1138.64256604225,19954.2739932864,-36342.2824552396,-5646.81060872204,-16375.871464714,
2640,201,105140.393095063,-66710.8376873538,-75782.0696570956,91979.8647737342,104877.29071108,-80670.3067624935,84113.6600510669,-79436.4681168161,
2644,202,95371.3620151713,-19731.4941563003,-83677.1975370881,101337.98138356,100458.082611332,-89451.1448682719,99601.8543364828,-88866.3785298322,
2648,203,-6533.23609033061,34477.4764153333,-3741.25733867375,6004.8184996627,-675.827345350664,-46937.7916381111,7848.32332710306,-29569.972106215,
2652,204,6576.84434376292,-9647.70581098864,10867.2616919591,-9218.39585523556,6042.70470651444,-29625.8291156088,-14113.0255595476,-6164.23114111795,
2656,205,95785.338674228,-65734.9158209462,-66923.9615707352,79065.5856210692,95218.7890075194,-75374.2173760196,70063.7781696055,-72768.2498417199,
2660,206,106111.017598035,-32079.9836015682,-88255.0583189795,108753.619641497,109900.711166943,-91033.4025065187,106135.112778558,-90886.9091733586,
2664,207,6859.43744891136,31785.767589303,-18951.0382951544,21477.2324534932,13941.4088656198,-56667.9753861398,23291.4564956971,-43670.8830202679,
2668,208,-5218.59588844727,2479.50136417167,18932.8439751678,-15814.6638649301,-5291.57433409385,-25377.1871777996,-18878.7751053304,863.134963886137,
2672,209,83661.1936880581,-61813.8386981295,-55751.5091599833,63601.1288882648,82856.5979429004,-68907.4106702102,53911.982943056,-64253.9786403154,
2676,210,112923.471680101,-43206.5031774644,-90148.7428127221,112474.291023528,115494.41403084,-91227.2144826906,108940.055541999,-91176.8336506884,
2680,211,23744.124024406,25842.4387386368,-35098.7431524686,38959.9399518895,31391.9969072338,-66056.7809411026,40510.569871732,-57220.3987503527,
2684,212,-13539.6139072912,13557.3611923887,23003.4989718794,-18903.1832102756,-12916.8719550219,-23976.2692423188,-20415.7704610551,3630.28092745315,
2688,213,69093.3548323339,-55043.3388404058,-42568.4279284987,46754.9990719556,68139.0023993257,-61387.0321377554,36972.0428552679,-53799.2854475123,
2692,214,116049.698418343,-52680.9829689244,-89704.4571881839,112523.21899214,117615.125193015,-90206.8349965614,107973.655518729,-90157.8846762043,
2696,215,42648.2236562042,17004.9613124086,-50867.6306447543,57267.8515038313,50522.7432278089,-74429.5432483606,58257.3185273789,-68889.238701968,
2700,216,-18175.1198381328,22781.7473151383,22846.7461880143,-18540.4143977659,-16574.1761415215,-25656.4722247687,-18780.5391884493,1283.05718696799,
2704,217,53079.045185929,-45787.9284963523,-28411.1235631852,30142.8473166045,52116.9366975947,-53130.3871429428,20868.9967833754,-41646.4855249507,
2708,218,115653.536099617,-59921.0482741652,-87137.3369857475,108974.656042416,116392.261253865,-88103.5134915726,103376.996919751,-88003.3106211794,
2712,219,62075.2870530232,5923.07817018964,-64931.5494217336,74905.9930331699,69553.443140202,-81298.7484095989,75110.1985705136,-78123.2360748334,
2716,220,-19035.1479095397,29681.2390901135,18316.8969532129,-14595.7785362933,-16222.3596837949,-30498.0835912327,-13810.494698345,-5796.88022099498,
2720,221,36561.0166264792,-34584.3848090631,-13995.6341976683,14573.3150331158,35652.1946969264,-44597.2510692181,6325.52132910744,-28811.063326724,
2724,222,111900.678205571,-64721.6441895538,-82542.3771193477,102047.246938616,112043.885832296,-84953.817421653,95364.9694162571,-84534.7892683493,
2728,223,80184.5810037352,-6671.21340885322,-75951.7864527448,89919.1233419327,86690.972648975,-86274.4478910503,89151.3632716374,-84705.0425058654,
2732,224,-15474.2020933869,33714.7678392849,9266.51916104784,-6533.90664266427,-11188.2550940818,-37846.2642844038,-5012.62456329162,-16392.7917352667,
2736,225,20892.9131499425,-22381.8746068328,-589.97429489783,1219.98056411511,20097.995710134,-36521.5434457712,-5566.36668042739,-16611.3470925506,
2740,226,105322.53746063,-66751.1825860956,-75949.5289265548,92172.7156248946,105064.978309271,-80808.6417089274,84342.0501759112,-79598.0712292279,
2744,227,95259.9832725505,-19594.6344250005,-83675.1411765982,101295.177792928,100360.405488063,-89502.5091770302,99572.8417721798,-88908.8021408084,
2748,228,-6757.84877036199,34527.924302569,-3542.6844409328,5793.23688664876,-921.987107036961,-46937.8139898555,7623.71064707168,-29429.3572818467,
2752,229,6712.92176400683,-9808.66072281131,10755.5029696826,-9141.72937175386,6167.38273708615,-29835.2649611551,-14047.5796517825,-6307.28230563191,
2756,230,95974.6132462756,-65806.4861066921,-67122.4450614983,79293.3275453243,95409.1588150452,-75524.1305260814,70336.9388385938,-72938.5701344693,
2760,231,106049.706762994,-31926.3600619269,-88265.0719004955,108722.885992871,109840.13793947,-91087.4937281005,106121.031179551,-90936.4182873271,
2764,232,6665.0219756391,31855.8403081704,-18684.2925768247,21242.1815088012,13692.0975079653,-56564.1738848894,23039.3511699857,-43463.0117968335,
2768,233,-5113.83326218525,2387.88156364936,18953.0052486664,-15852.3265543373,-5203.01672256192,-25389.0559541054,-18926.4290245091,842.571358987255,
2772,234,83804.1777973387,-61854.0047829157,-55835.6411261131,63665.2336913626,82998.5091684472,-69000.8856655223,53992.5162783285,-64376.8461795862,
2776,235,112814.462222393,-43068.9728938309,-90138.4163067837,112416.064729221,115428.297570741,-91240.7596398305,108892.871009454,-91190.0882351504,
2780,236,23423.1976775167,25891.7690386497,-34774.8663753112,38692.8366056486,31174.0226953057,-65891.9591774892,40198.8077400694,-56975.1107067002,
2784,237,-13454.3196504497,13375.7085652004,23049.0294753348,-18889.8392188357,-12828.7166748901,-23830.3570545145,-20426.4992983936,3717.74330350677,
2788,238,69318.1910298098,-55211.289848243,-42716.7988081931,46978.6953304643,68366.5208061362,-61483.7034325246,37226.4504106582,-53942.5154259819,
2792,239,116016.796650505,-52688.4484515725,-89727.7924093953,112533.590201567,117596.863817795,-90234.797028875,108008.904219735,-90185.7573015401,
2796,240,42344.2175798676,16995.5735797374,-50605.4446822935,57022.8540328567,50231.2094248783,-74298.0926392189,58011.0693587147,-68691.9622054055,
2800,241,-18184.1946463817,22630.5601156426,22966.8868144616,-18589.6999942899,-16592.169295808,-25430.9431232146,-18843.4369973465,1471.72826191524,
2804,242,53170.1285445843,-45940.2332830707,-28435.5316681304,30208.8073144921,52213.2950679416,-53181.9302656567,20944.3892174231,-41762.2452094847,
2808,243,115634.447709852,-59971.6079201231,-87152.7149859327,108978.657004673,116386.047468906,-88121.4395906257,103397.605228139,-88022.6001766444,
2812,244,61817.6384946869,5883.78380343721,-64681.254587323,74633.391157793,69305.338776748,-81167.8342423242,74828.2983694432,-77944.1986017464,
2816,245,-19007.1858772261,29507.1860560401,18467.1453794414,-14663.9066533931,-16216.6152854699,-30168.0824360946,-13904.8637634353,-5529.35219160941,
2820,246,36726.8889220821,-34770.7760060759,-14050.1053989059,14655.1671213111,35820.0786495303,-44586.2763626905,6407.12754811377,-28909.4557058162,
2824,247,111903.58393235,-64762.5255301625,-82551.2731136409,102065.865941747,112054.79348359,-84960.5900002229,95403.3920649757,-84546.3227684883,
2828,248,79971.5241755872,-6649.12988533138,-75759.8296713626,89730.9887088524,86469.4892131673,-86179.8553085155,88963.2956937904,-84575.469443258,
2832,249,-15475.0961631651,33580.3891516196,9472.44578271458,-6601.87829755286,-11226.8565567561,-37481.6849805933,-5106.68070395955,-16077.7662489136,
2836,250,21158.4965775605,-22598.0383274601,-744.447200828457,1415.04423797658,20357.3206493045,-36439.9595785093,-5381.87538169329,-16694.8755615801,
2840,251,105394.085394631,-66782.3409178663,-76017.0535465543,92292.8338995974,105143.656449754,-80841.7669942101,84494.1314451851,-79639.6231221703,
2844,252,94992.2540774648,-19507.6861390693,-83517.2484537659,101087.932418338,100131.545976585,-89416.0079259882,99377.7780983184,-88805.8276541028,
2848,253,-6910.73470243629,34438.6067317255,-3270.14962078924,5598.88846860987,-1076.21414377858,-46552.0452323014,7420.75680741749,-29103.8711790885,
2852,254,6957.11457218106,-10068.2315311708,10636.1670060357,-9021.4769865843,6409.65329523722,-29630.0759470553,-13954.6634500818,-6344.56501538336,
2856,255,96121.3524486247,-65908.2759509416,-67216.6576643774,79455.4447478586,95562.7823546866,-75571.9856109602,70511.8859424455,-73002.7419928005,
2860,0,105876.592502188,-31893.5924045554,-88183.1974605557,108610.479070005,109704.664016326,-91040.8232856778,106021.767082425,-90885.5904204357,
2864,1,6410.10033012633,31848.5759912224,-18435.6741232484,21004.8506861747,13463.7520866099,-56284.5535617535,22804.7472601828,-43199.0823983052,
2868,2,-4904.26330617229,2136.35738329379,18822.7616337254,-15719.4454335505,-4989.33404556919,-25164.5103293074,-18824.4156628151,817.537405197311,
2872,3,84072.6669517359,-61993.1667438944,-56067.7192887925,64016.6925211778,83280.3199625397,-69105.8718092289,54367.9361781998,-64516.745748132,
2876,4,112784.309719123,-42970.8710874165,-90141.4337922852,112422.770252558,115400.693166339,-91260.4515266957,108921.816518523,-91209.5789563154,
2880,5,23223.3283785973,25984.9311095394,-34561.6307332076,38473.0295506751,30915.4130119578,-65731.5854110224,39989.0813218452,-56800.4094720375,
2884,6,-13350.8310736216,13184.2435221962,23008.5728178707,-18873.5000936389,-12741.3213540699,-23614.1486303984,-20425.4487664042,3729.79089376818,
2888,7,69541.5520121517,-55356.2632627801,-42918.7244676023,47195.9989900588,68596.7214222814,-61570.4952562446,37458.6626838044,-54104.1185383938,
2892,8,115991.986214159,-52636.2124247804,-89748.3560142942,112550.823396542,117590.761791558,-90257.2158285637,108047.729199854,-90208.3772669288,
2896,9,42035.6740994065,17074.6316998758,-50384.4529848639,56730.3591049146,49939.1391800808,-74172.5652423579,57725.5034715537,-68568.915852179,
2900,10,-18140.5863929494,22492.7169075867,22997.6204630876,-18632.7271023663,-16564.3637257056,-25156.441349559,-18900.5010009409,1517.86226247099,
2904,11,53399.0551112956,-46092.9180494449,-28603.9073591122,30384.1343979996,52438.4888933288,-53205.6678182683,21130.1769173356,-41909.0067635783,
2908,12,115635.632352308,-59852.9648605543,-87178.1959746118,109015.649141747,116396.508085311,-88137.5999018669,103455.116266622,-88040.4592204641,
2912,13,61496.5109820975,6099.72400661993,-64486.1909134616,74387.5219687846,68986.781714771,-81071.7664446552,74599.6400236654,-77837.5360772057,
2916,14,-19040.0876450643,29443.215363409,18560.5756712646,-14742.8977182982,-16269.9465477403,-29843.6021618369,-13996.2823982575,-5407.31166688343,
2920,15,37067.1942314141,-34968.4101305497,-14354.9161380429,15015.6337041418,36160.8533454959,-44615.4677409491,6747.41050570136,-29083.3969811674,
2924,16,112059.263832481,-64724.3263988884,-82692.6702490652,102293.026720646,112218.676473937,-85058.6694548928,95658.4925244442,-84649.1407929827,
2928,17,79742.1729257313,-6472.08171750089,-75666.1982138393,89576.4263959439,86260.6121612325,-86167.1818694093,88830.481628237,-84556.6269226822,
2932,18,-15622.952952737,33588.5028348569,9635.23353758258,-6798.05955863709,-11401.8036606078,-37264.2248587876,-5298.97276150856,-15980.1338291328,
2936,19,21346.6535623853,-22766.4140184419,-901.535260860355,1553.51329487721,20545.6340963404,-36407.3036798601,-5248.12254287273,-16829.47776669,
2940,20,105518.852832181,-66775.7695049965,-76133.9308183111,92451.7771544191,105271.821352461,-80924.088469039,84681.8860986097,-79732.9416552713,
2944,21,94800.5655170161,-19316.1540408318,-83450.1708686556,100968.462344225,99959.4822477677,-89410.1294171965,99273.7754313678,-88792.0142760294,
2948,22,-7136.934356324,34507.9641947704,-3049.18027510408,5351.94639586763,-1335.60613818242,-46343.8163809557,7176.0946126097,-28934.1990869283,
2952,23,7129.40181844256,-10203.392529892,10519.6026587013,-8891.83686874352,6577.31373039648,-29517.736079423,-13847.7327046076,-6418.83986220835,
2956,24,96279.6475028572,-65890.9533489887,-67358.6135934131,79668.9486108957,95724.6983915208,-75658.084530602,70754.0894453632,-73108.2198748851,
2960,25,105779.630634741,-31667.1021779897,-88146.4064891823,108552.632755355,109607.210410501,-91049.8757421822,105975.431916169,-90890.3736937492,
2964,26,6202.67614158108,31931.277445707,-18152.7233901886,20783.166084667,13202.4601939273,-56082.3820331552,22565.0471526441,-42987.14315738,
2968,27,-4769.99637722926,2008.17012884261,18790.7539356654,-15675.3007382513,-4869.79691622221,-24916.0706896866,-18794.5537322228,840.045611863805,
2972,28,84221.3507558526,-62039.1666339835,-56175.6782145117,64161.0177351258,83427.2603305889,-69149.5247661501,54531.7297615683,-64594.0827839473,
2976,29,112663.833816509,-42865.9967024322,-90100.3289342319,112346.37199001,115295.505856932,-91241.8772270533,108858.382267759,-91190.6246770173,
2980,30,22905.2630549983,26023.644330936,-34248.3263311775,38179.9758291216,30577.6781532381,-65512.7841845494,39683.8011960746,-56525.8853466374,
2984,31,-13284.0664129336,13084.0630035475,23051.9575538585,-18863.5759191008,-12691.0746325343,-23291.5906061638,-20424.845269304,3872.64089258205,
2988,32,69655.210632707,-55369.7637164311,-42967.898305404,47307.7353605909,68707.1390398907,-61566.4719422426,37602.2949936742,-54144.3293266689,
2992,33,115904.590893339,-52430.5987275361,-89711.4532841984,112492.686509214,117511.636616187,-90226.79510436,108007.630170301,-90178.0235979585,
2996,34,41773.0411020566,17230.2668965181,-50087.6888737308,56478.9019797924,49649.4382201956,-73977.5239202409,57463.6080817709,-68296.2022180798,
3000,35,-18043.3786563133,22323.268332871,23051.0187805913,-18613.8175265572,-16489.7312509693,-24764.5482140241,-18901.5068294414,1772.9180184505,
3004,36,53662.6268819126,-46242.8759029956,-28772.3948088163,30620.8393717813,52702.3288848792,-53204.8408037234,21384.6068244704,-42000.4253984005,
3008,37,115652.150291461,-59754.6842401843,-87202.8723004904,109070.09799124,116424.157193203,-88151.5697421515,103535.493139683,-88055.278427038,
3012,38,61258.5096071374,6243.13279904518,-64243.5850791437,74163.490434109,68759.5538806384,-80941.8134023921,74370.5793464874,-77641.1312986769,
3016,39,-19002.3579004238,29292.2516813578,18690.6628239945,-14781.476829228,-16248.7570939967,-29495.3396314787,-14059.9401664663,-5086.13945080512,
3020,40,37288.3200393105,-35164.2561154671,-14502.6388171481,15200.080299387,36388.0364761396,-44579.3920253983,6931.14184512399,-29177.4531218354,
3024,41,112079.447457725,-64671.6656889517,-82719.9617290451,102347.02853525,112247.174948117,-85066.5372689411,95736.9471474823,-84660.9425140551,
3028,42,79442.0560529299,-6296.79933748237,-75456.4047403818,89342.113058819,86001.533091251,-86041.8109347595,88598.9846109134,-84390.3075921902,
3032,43,-15665.8012468578,33469.904478777,9829.42549341029,-6890.46167021533,-11449.3681728087,-36884.7369414254,-5415.89473675427,-15610.1454031641,
3036,44,21565.0077539692,-23001.9567015119,-1048.98971903202,1724.23591902684,20764.9717646804,-36332.8053155905,-5087.61466593917,-16916.8283840213,
3040,45,105598.380338953,-66783.2796911335,-76197.9015109422,92571.1354698104,105358.233196525,-80954.2186205648,84830.4134405152,-79774.4711964692,
3044,46,94575.0140637176,-19178.1767223092,-83303.90105294,100792.464708384,99748.6158905764,-89325.7068783888,99102.404606629,-88686.0223038223,
3048,47,-7253.09637225823,34430.6495106995,-2807.93789719795,5199.55220217135,-1477.38325326243,-45987.7083882938,6999.58288664614,-28560.5449748689,
3052,48,7322.83381495879,-10425.4347593111,10419.1762708636,-8793.824469307,6738.06747651905,-29359.2175077459,-13750.8378923938,-6451.49576085755,
3056,49,96373.8154022474,-65935.0086373101,-67426.9875797019,79784.4400744963,95810.9314216294,-75686.605356527,70909.4117175831,-73156.5666981419,
3060,50,105602.694225632,-31581.8302728927,-88044.1025548104,108406.362939639,109433.850280505,-90984.966276284,105840.829711059,-90818.4010766031,
3064,51,6002.82919440618,31900.5214453365,-17896.5723987308,20525.7410437752,12946.577423403,-55791.8093552362,22302.9505971611,-42628.3976588723,
3068,52,-4577.25728479115,1756.86946593159,18658.0739805787,-15575.6343097251,-4683.18220176485,-24770.4714263047,-18721.172955176,819.504358709378,
3072,53,84449.159735341,-62124.4608908249,-56387.5504002035,64447.2988781093,83664.7923189154,-69250.2417266657,54835.2440995269,-64736.1951751942,
3076,54,112608.557952471,-42685.1040345554,-90089.6671521267,112331.508079947,115260.413618137,-91245.4982096551,108858.091695081,-91193.9103834522,
3080,55,22702.0186426662,26109.6091401111,-34049.9769508811,37973.7362830325,30390.5717004027,-65325.2754003138,39478.9698098862,-56308.0899486649,
3084,56,-13139.5623850301,12853.3930007688,22960.2706981028,-18809.1270696076,-12550.5939186327,-23105.0876504287,-20403.2758359046,3885.35903517712,
3088,57,69965.2963835354,-55530.6962765093,-43271.1667741736,47652.3769083472,69025.9419710567,-61695.3744525164,37921.7684771739,-54345.8973581669,
3092,58,115915.655006844,-52203.7061695702,-89759.1072033772,112559.071190246,117534.211878087,-90272.4820700267,108086.822400906,-90223.6211566474,
3096,59,41479.048607236,17465.1613789989,-49897.4084731827,56201.9415142466,49321.5157772918,-73858.6349914831,57208.9546571916,-68146.4678819737,
3100,60,-18004.5983796833,22200.1549244112,23044.5367746993,-18654.7212189104,-16485.2609020783,-24667.7875122771,-18959.8225307253,1832.0830860237,
3104,61,53978.0770514103,-46434.7879808888,-29097.0091935407,30953.9697711432,52991.9180860422,-53380.5702186311,21692.39034562,-42259.2362474485,
3108,62,115742.563097783,-59655.3307360805,-87308.7301622308,109222.872164592,116528.629246787,-88235.2770251366,103704.517031254,-88141.6232158689,
3112,63,60935.1916235914,6466.85140929835,-64131.1558045335,73920.92930328,68488.896607029,-80880.3237533955,74162.4846056085,-77563.8836698393,
3116,64,-19055.1303690827,29236.4840789418,18727.0291122233,-14896.4765544506,-16305.9552080578,-29368.2252607614,-14177.6221010234,-5007.17073764452,
3120,65,37628.2900724757,-35377.0447226816,-14855.9081382642,15512.3565211721,36721.2339307349,-44742.313890733,7205.71067401298,-29444.0200262094,
3124,66,112233.808604933,-64490.1471722302,-82881.810710646,102568.199046636,112408.241618662,-85178.8771365735,95971.7745747298,-84782.9159835477,
3128,67,79240.8232975988,-5881.4368702694,-75404.3251758009,89211.0200775886,85823.9261298092,-86046.1471731838,88490.8468712386,-84385.6584293435,
3132,68,-15793.8767425867,33535.9091801535,9937.31736389606,-7061.94425367645,-11591.5923227778,-36790.5019868019,-5583.8680963359,-15527.8686318241,
3136,69,21824.7573762843,-23195.8357329173,-1333.28155675907,1973.27905574787,21026.6659887631,-36488.1946430438,-4882.51505881727,-17154.561538048,
3140,70,105791.56646628,-66725.9698183501,-76406.0186035655,92851.672214469,105559.644765812,-81092.4194565319,85125.4564673253,-79931.0228146342,
3144,71,94447.7208790446,-18876.1375994846,-83288.6124597326,100707.438672476,99626.3071449169,-89357.7145764488,99033.3377162621,-88711.7044582015,
3148,72,-7452.49628454403,34539.2119335189,-2651.22981682179,4937.76857111079,-1723.43125622645,-45945.8212191845,6744.61653764445,-28454.6871131286,
3152,73,7527.35227672485,-10592.4022903922,10220.6257248671,-8653.94725250569,6934.02522015872,-29530.5436289959,-13659.0839814048,-6635.80824563602,
3156,74,96605.0889021264,-65959.6626114443,-67668.6993442415,80100.4713893499,96046.0717732992,-75845.660370071,71220.1009655119,-73341.0356451315,
3160,75,105532.554451532,-31314.4810574628,-88073.8974301693,108389.152096409,109401.037919645,-91041.8291141783,105839.622716859,-90874.1910307635,
3164,76,5757.45174377581,32050.5910576094,-17734.6563618966,20254.5696800434,12727.2174033186,-55746.5247209698,22061.954088444,-42559.5989894389,
3168,77,-4376.87389574932,1546.58425409606,18445.9559256978,-15401.3130547181,-4486.06216741349,-24883.1689218484,-18607.6484450875,679.068348296684,
3172,78,84817.6729461757,-62294.3788521742,-56813.1052628881,65016.351940197,84040.6816054203,-69473.5133020298,55392.5177922866,-64990.0662887175,
3176,79,112646.757083745,-42548.803096867,-90176.7048450357,112414.433051876,115302.904284347,-91349.7690975391,108957.244033485,-91298.0248091251,
3180,80,22522.1094515454,26238.2657811959,-33886.2057192571,37732.7397743153,30130.0844705206,-65343.1120923891,39260.4368043467,-56295.2376956031,
3184,81,-13077.4692389332,12788.4835348706,22906.5818079211,-18777.3875924811,-12504.951656455,-23250.4186928771,-20414.7199290657,3777.80244085818,
3188,82,70311.9719400372,-55687.873743519,-43687.579773376,48201.6933800809,69386.4532573763,-61939.4555019683,38436.9761868687,-54643.2426146558,
3192,83,115939.951353067,-51943.755381555,-89865.3226930288,112661.576290319,117580.859968765,-90374.9871700987,108210.472251233,-90326.1039049749,
3196,84,41178.0823681453,17704.3473964152,-49704.5799737668,55926.6127260462,49041.4037157778,-73830.0247585803,56935.8386916922,-68084.6653085548,
3200,85,-18050.1959383721,22187.481485305,23153.5238806634,-18750.9901822794,-16545.2529841963,-24602.2074940452,-19074.5540350144,1897.43958681102,
3204,86,54128.7948642725,-46533.0909530033,-29214.6911280979,31138.2822559216,53132.5329104105,-53487.7468332943,21850.6853998524,-42408.2106242431,
3208,87,115719.384338782,-59504.0988330959,-87358.2839796882,109256.086856852,116516.492249548,-88281.6121913924,103740.726857272,-88188.9195071363,
3212,88,60577.6531192843,6609.83551857895,-63861.4149524468,73574.3655055005,68139.7176551482,-80788.6368976399,73834.0480725823,-77430.041424041,
3216,89,-19119.3916343917,29154.7884529577,18949.3842660647,-15056.4256377728,-16395.6304068125,-29105.8157808561,-14345.2825361827,-4773.59500808656,
3220,90,37749.2577134678,-35503.5555962986,-14813.7750999659,15527.7792248463,36832.0315279998,-44708.4509978832,7192.32197908425,-29470.3056776888,
3224,91,112211.836840133,-64515.7846231204,-82870.6348384184,102565.583892534,112392.975377199,-85183.8839273315,95955.9271879109,-84788.6380301282,
